Fz,Cz,Pz,C3,T3,C4,T4,Fp1,Fp2,F3,F4,F7,F8,P3,P4,T5,T6,O1,O2,Class
85,191,236,226,420,494,494,494,310,531,52,-57,163,89,273,420,85,578,402,c
402,121,236,226,163,200,126,163,310,420,89,126,126,126,163,200,226,121,50,c
332,85,163,191,126,16,52,-20,236,310,163,200,163,89,126,52,332,85,85,c
473,437,384,437,347,126,200,163,457,568,310,384,273,236,273,236,332,226,156,c
332,156,200,121,200,-94,163,16,420,457,89,89,163,-20,89,52,121,85,121,c
332,156,273,85,236,16,200,126,531,457,236,200,236,126,310,200,226,332,367,c
332,297,310,121,273,163,310,273,531,494,163,89,273,89,273,163,15,332,297,c
156,121,126,-90,200,16,273,126,494,384,89,-20,200,16,273,126,50,261,297,c
367,332,273,156,384,200,384,310,678,604,273,200,310,200,420,310,191,367,402,c
473,402,200,121,236,52,273,126,531,420,126,52,163,-57,200,89,156,121,226,c
649,508,273,226,236,89,236,126,494,347,273,273,200,126,347,200,367,226,367,c
789,649,384,402,310,236,347,236,531,494,236,310,236,200,310,273,226,226,261,c
578,402,163,85,126,-20,163,16,347,347,163,163,163,16,200,126,85,50,156,c
649,508,273,156,236,126,126,200,384,494,384,384,273,273,384,347,121,156,191,c
578,402,126,-19,52,16,16,126,236,384,200,236,163,126,163,200,-125,-125,-55,c
508,332,52,-90,-57,-57,-131,89,200,347,273,310,163,236,236,273,-19,-160,-19,c
578,543,163,121,-20,52,-94,236,273,494,273,420,163,310,236,384,-55,-160,-125,c
367,332,-20,-55,-241,-131,-315,-20,52,236,52,273,16,89,16,163,-90,-336,-266,c
508,473,126,156,-94,-20,-241,89,126,347,273,494,126,310,236,347,85,-160,-125,c
508,473,89,85,-131,-94,-204,-20,89,273,126,310,16,163,89,163,-125,-231,-266,c
402,332,-20,-125,-167,-241,-241,-167,163,200,163,236,16,126,126,163,-55,-195,-195,c
508,402,126,15,-20,-20,-131,16,347,457,236,236,89,200,236,347,-55,-19,-125,c
332,191,-20,-125,-131,-167,-167,-167,200,310,16,52,-20,-20,89,89,-90,-160,-231,c
437,367,163,121,52,52,-20,-20,200,273,273,347,89,200,236,163,226,85,15,c
543,473,236,261,163,163,126,16,126,163,163,310,52,89,89,52,156,50,-55,c
437,332,89,156,89,52,89,-94,89,16,126,310,16,52,126,16,261,15,85,c
578,508,273,402,310,273,236,126,273,310,273,494,89,273,236,236,367,156,226,c
437,297,126,226,163,89,200,16,236,273,52,273,-57,52,-20,52,191,-90,121,c
437,332,163,226,163,89,89,126,273,384,200,384,-57,200,163,236,332,15,261,c
473,473,200,261,126,200,52,236,236,420,126,347,-57,163,126,236,156,-55,85,c
297,261,16,50,-94,16,-131,52,126,200,52,200,-94,52,89,126,121,-160,50,c
437,473,200,297,89,163,-57,236,310,457,236,384,16,273,200,384,261,-19,121,c
332,367,126,191,16,16,-94,126,236,420,52,236,-94,126,-20,200,121,-195,-55,c
297,297,163,261,126,89,-57,163,273,457,163,384,-20,273,163,310,297,15,121,c
332,402,310,402,310,273,163,347,384,568,163,384,126,310,200,347,261,191,156,c
297,297,273,191,236,126,163,163,236,347,163,273,126,126,163,126,297,156,121,c
649,578,531,473,494,420,347,347,310,384,457,531,310,347,384,273,578,473,367,c
719,578,568,508,494,457,457,310,200,273,347,347,310,163,236,52,473,402,297,c
649,508,568,473,494,457,457,310,200,273,420,384,310,236,310,89,613,508,473,c
754,719,678,684,604,678,641,494,310,457,457,457,347,310,347,236,508,613,473,c
578,578,420,437,420,420,531,273,200,236,273,273,236,126,200,52,367,437,332,c
613,684,494,508,457,494,457,384,236,347,457,457,310,384,347,236,437,578,402,c
508,578,420,437,347,457,347,347,200,420,273,273,236,236,200,126,261,402,226,c
367,402,384,367,273,310,200,200,163,384,384,310,236,236,236,126,473,297,261,c
613,649,641,649,457,457,310,347,310,531,568,531,347,457,310,273,613,332,261,c
613,473,531,473,273,200,200,126,126,236,384,384,236,236,89,52,437,50,85,c
649,543,531,508,236,163,89,163,236,273,494,494,273,384,236,200,437,191,226,c
613,613,420,473,126,163,126,200,310,384,310,420,163,273,163,126,156,121,50,c
402,367,163,261,-57,16,16,89,310,310,236,384,89,236,163,89,156,50,50,c
473,473,310,402,126,236,163,347,420,568,384,568,200,457,310,310,191,226,121,c
332,367,163,191,52,126,126,200,236,384,200,384,163,273,89,126,15,50,-19,c
332,367,163,191,163,200,89,200,200,384,347,531,236,457,236,236,156,191,156,c
402,473,200,261,236,273,200,273,236,420,273,457,236,347,163,163,15,156,85,c
226,226,52,50,126,89,52,89,126,236,163,310,200,163,126,52,15,85,85,c
367,473,310,261,347,310,200,310,273,457,384,457,347,384,310,273,261,332,261,c
367,473,310,226,347,273,236,200,89,236,236,273,273,163,89,-20,226,156,50,c
367,402,384,261,347,236,126,163,-20,89,384,347,310,236,200,16,402,191,121,c
402,402,457,437,347,310,126,236,89,310,347,384,310,273,236,126,297,156,15,c
191,226,236,226,89,52,-20,-20,16,163,163,236,163,52,89,-57,261,-55,-55,c
367,578,347,437,163,236,16,89,89,273,420,420,236,200,273,89,367,121,50,c
332,437,236,332,52,163,16,-20,-20,200,273,200,163,-20,52,-57,191,-19,-125,c
226,156,200,226,16,52,-94,-94,-94,163,310,200,200,16,89,-57,332,15,-19,c
402,332,384,402,200,200,89,89,16,310,347,310,273,126,163,52,367,85,15,c
297,156,273,226,163,-20,52,-94,-131,89,163,163,200,-57,16,-167,297,-90,-55,c
402,261,420,332,347,89,126,16,-20,126,384,347,310,126,200,-57,402,156,121,c
402,367,384,261,420,89,236,16,-57,89,310,200,236,-57,52,-204,191,121,15,c
297,226,273,121,347,16,163,-94,-131,-57,310,163,163,-57,52,-204,297,156,85,c
402,332,457,367,494,236,273,89,-20,163,420,273,200,89,89,-20,367,261,121,c
261,85,347,191,310,52,163,-131,-131,-20,200,52,52,-167,-94,-204,297,-19,-55,c
332,156,457,297,310,89,52,-94,-94,-20,347,236,89,52,52,-57,508,50,50,c
402,332,494,402,236,126,52,-57,-94,16,200,236,-20,16,-94,-94,402,-90,-90,c
261,261,273,332,16,-57,-94,-167,-167,-94,89,200,-94,-20,-131,-131,402,-195,-55,c
367,473,384,543,126,163,-20,89,52,163,236,347,52,163,89,163,437,15,50,c
261,261,200,332,-20,16,-57,-20,16,52,16,126,-20,-20,-57,16,226,-160,-90,c
261,191,200,332,52,52,-57,52,52,89,163,236,52,163,89,163,367,15,121,c
332,261,310,437,200,200,126,200,126,236,126,200,89,200,89,236,261,121,85,c
226,121,163,191,89,52,52,16,16,-20,16,89,16,89,16,52,261,50,85,c
437,437,347,367,273,236,163,163,163,-20,236,347,163,310,200,200,332,226,191,c
332,297,236,226,163,126,163,52,126,-131,16,126,89,52,16,-20,121,121,50,c
226,156,163,156,163,52,126,16,163,-57,126,200,126,126,126,52,226,191,191,c
297,261,273,332,310,200,236,163,273,163,163,236,163,163,163,163,156,226,226,c
85,15,89,85,163,52,163,16,236,-20,16,89,126,16,89,16,85,50,226,c
191,156,200,191,310,236,236,236,420,126,200,273,236,273,273,236,191,156,402,c
121,156,52,50,163,163,126,163,347,89,-20,89,126,126,52,126,-90,-125,121,c
85,85,-20,-55,16,16,-167,16,126,-131,52,89,89,163,52,126,50,-231,85,c
332,261,163,226,126,236,-167,200,163,16,200,236,163,310,89,236,121,-160,121,c
226,85,52,85,-20,89,-241,16,89,-94,16,89,89,89,16,16,50,-301,50,c
226,226,163,226,89,273,-167,163,236,89,163,310,126,310,273,200,191,-55,191,c
191,261,126,191,16,236,-131,200,273,163,-20,163,16,163,126,89,-19,-160,15,c
50,85,-20,15,-94,52,-278,52,200,52,-20,126,-20,89,89,89,50,-195,50,c
226,297,126,261,89,200,-131,236,347,273,126,273,126,273,273,273,85,15,121,c
121,156,16,50,-20,16,-131,89,200,89,-20,52,52,16,126,89,-55,-125,15,c
191,191,126,85,126,126,-94,126,273,89,200,163,236,200,273,200,156,50,226,c
261,226,163,156,236,236,52,200,273,126,52,126,163,163,89,163,15,85,85,c
50,-19,-20,-55,52,52,-57,52,163,-20,-94,-20,-94,52,-57,89,15,15,85,c
121,121,89,156,163,236,16,236,310,236,52,163,-20,273,163,310,121,191,191,c
-19,85,16,15,89,89,16,126,310,163,-94,16,-20,89,52,89,-19,-19,85,c
50,156,52,15,89,89,16,126,384,200,89,200,126,310,273,273,121,50,191,c
156,332,163,156,126,236,16,273,347,310,89,273,126,236,200,310,-19,15,15,c
15,85,-20,-19,-57,16,-167,52,126,52,16,163,52,52,89,163,-19,-90,-90,c
156,261,163,191,89,200,-131,236,200,163,236,310,200,347,310,347,121,121,15,c
85,191,16,121,16,163,-131,126,89,52,-20,89,89,163,126,89,-55,-19,-160,c
50,121,-20,85,16,89,-167,52,16,16,16,163,52,236,236,163,121,15,-19,c
191,297,126,261,163,273,16,200,89,200,16,273,52,310,236,236,156,85,-19,c
50,156,-20,85,52,89,-20,16,-57,-94,-94,126,-20,89,52,-57,121,15,-90,c
191,332,163,297,236,273,89,163,16,16,200,347,126,310,200,126,297,297,85,c
156,297,200,261,236,236,200,163,52,89,126,163,126,126,16,52,191,261,15,c
85,156,200,156,236,126,163,89,89,16,200,163,126,200,126,89,297,261,156,c
261,332,384,367,347,273,273,273,200,163,273,310,163,347,200,236,297,367,156,c
156,226,236,156,126,52,126,52,16,-57,52,126,52,126,52,-20,191,85,15,c
261,332,347,332,163,126,89,89,89,52,236,347,89,310,236,200,402,226,121,c
261,332,347,402,126,126,89,126,89,89,126,273,52,236,89,163,261,85,-55,c
121,156,200,297,16,-20,-20,-20,52,-20,126,236,16,200,89,163,332,-19,-19,c
261,332,347,473,163,200,16,200,126,200,273,384,89,384,163,347,332,85,15,c
121,156,126,226,-20,89,-57,89,16,52,16,126,-57,126,-20,126,121,-90,-90,c
121,156,89,191,-20,163,-57,200,52,89,89,273,-57,273,163,236,191,121,156,c
156,226,52,226,16,273,126,310,163,200,16,200,-57,200,52,200,15,191,121,c
15,50,-94,15,-94,126,89,126,163,52,-20,89,-94,89,16,52,50,156,191,c
226,261,126,261,126,310,236,310,384,273,236,273,89,273,200,273,156,402,332,c
156,121,126,156,163,200,347,200,347,236,89,89,52,126,52,89,85,332,261,c
156,50,236,156,310,273,457,273,384,236,200,200,126,273,273,236,297,508,508,c
226,226,384,332,494,494,604,457,457,384,163,236,200,273,310,310,261,578,473,c
15,15,200,156,347,310,494,310,347,273,16,52,126,126,163,200,226,437,437,c
85,191,310,367,457,494,531,531,457,494,200,273,200,384,347,457,332,578,508,c
-19,121,126,261,273,384,384,457,310,384,-57,52,52,200,89,273,50,332,191,c
-125,50,-20,156,52,236,126,347,200,273,16,126,16,273,163,347,85,297,156,c
-19,226,89,297,52,347,89,457,273,494,52,236,52,310,236,494,50,297,85,c
-160,-55,-57,156,-131,126,16,236,163,310,-94,52,-20,89,126,310,50,85,15,c
-19,50,126,332,52,236,126,310,310,420,126,273,126,310,347,457,191,261,156,c
-19,85,126,261,52,126,163,236,236,347,-20,163,89,163,200,310,15,121,-19,c
-90,15,52,15,16,-20,89,89,163,200,-20,126,126,200,236,273,50,121,85,c
15,226,236,191,236,200,236,310,236,310,89,273,273,347,273,384,121,332,156,c
-90,15,89,-19,163,89,273,163,89,89,-57,52,163,126,52,126,15,261,121,c
15,50,200,156,310,273,347,273,200,163,126,163,236,310,236,347,261,473,332,c
50,85,236,261,347,384,457,347,200,200,52,89,200,236,126,236,191,437,261,c
-55,-19,126,156,236,200,384,200,126,16,-20,52,126,163,89,126,297,332,297,c
85,226,236,367,310,347,420,347,236,310,89,273,163,310,200,310,332,437,332,c
-19,85,52,191,89,89,273,200,126,236,-131,89,16,16,-20,126,191,191,156,c
50,156,126,261,89,89,163,200,163,200,89,273,89,200,163,236,332,261,226,c
156,332,236,297,52,163,163,273,200,273,89,273,89,236,89,163,191,121,50,c
85,156,89,15,-131,-57,-57,52,89,52,52,163,16,126,52,16,156,-55,-55,c
261,367,236,226,52,163,16,200,200,163,236,347,163,347,236,163,226,156,50,c
121,226,126,85,16,126,52,89,126,16,52,163,89,163,52,16,121,50,-90,c
85,121,126,85,89,89,52,89,126,89,126,273,126,273,163,163,261,156,85,c
156,261,236,297,236,273,236,236,200,273,126,273,163,273,126,236,156,261,121,c
15,-19,16,50,89,89,200,52,89,-20,-20,52,89,16,-20,16,85,226,121,c
191,121,163,226,273,310,347,236,236,89,236,200,200,200,200,200,226,473,367,c
191,85,163,191,273,273,457,200,200,52,52,52,89,-20,16,-20,121,332,261,c
121,50,126,85,236,200,384,52,126,16,89,89,89,52,89,16,261,367,332,c
156,226,273,261,347,347,457,200,163,126,126,163,163,163,89,200,226,437,261,c
15,50,89,50,163,89,310,16,16,-20,-57,16,16,16,-94,16,156,156,121,c
121,156,236,261,236,236,310,163,126,163,200,273,89,273,52,236,367,261,261,c
191,191,273,297,200,200,273,163,126,200,89,163,52,163,-94,163,261,50,50,c
156,156,200,156,52,16,16,16,52,89,52,126,-20,126,-20,163,261,-90,-19,c
261,367,236,261,52,163,-20,200,126,200,89,236,16,310,163,310,121,-19,-90,c
50,156,-94,-19,-241,-20,-204,16,-57,16,-167,16,-57,52,16,52,-160,-195,-301,c
15,226,-94,-19,-204,16,-241,52,-57,163,52,200,89,200,236,200,-90,15,-160,c
15,261,-20,15,-94,52,-94,52,-20,236,-20,89,89,52,89,126,-195,50,-195,c
-90,-19,-94,-160,-131,-57,-57,-131,-20,-20,-20,-20,89,-20,52,52,-55,85,-55,c
50,156,89,50,126,200,200,126,163,200,126,126,200,236,236,273,50,332,156,c
-90,-19,-57,-125,89,89,273,52,52,126,-131,-94,52,52,16,126,-90,191,50,c
-125,-19,-57,-125,126,126,273,52,52,89,-20,52,16,200,163,200,15,297,226,c
-55,121,-20,-55,163,200,347,126,89,163,-131,52,-20,163,89,163,-125,226,156,c
-231,-125,-278,-266,16,52,236,-57,-57,-131,-241,-94,-57,16,16,16,-125,156,156,c
-125,-19,-94,15,200,273,347,126,52,-20,-20,89,126,200,236,200,15,297,297,c
-160,-125,-204,-55,89,126,273,52,52,-57,-167,-94,126,-20,52,16,-90,50,156,c
-125,-90,-204,-19,52,16,163,16,126,16,-57,16,89,89,200,126,85,15,226,c
15,191,-94,156,89,89,163,126,236,310,-57,52,89,89,163,273,-19,-19,85,c
-195,-55,-278,-90,-204,-167,-94,-131,163,200,-241,-131,-57,-131,16,126,-160,-231,-55,c
-90,15,-131,50,-94,16,-94,52,236,310,16,89,52,126,200,310,-55,-55,50,c
-90,15,-94,15,-131,-20,-57,-20,126,200,-94,-20,16,-20,52,89,-160,-160,-125,c
-55,-90,-20,-90,-94,-94,-94,-131,163,126,52,-20,52,-20,126,52,15,-55,-19,c
121,156,236,50,89,89,52,16,347,347,163,16,163,52,163,163,50,85,-19,c
-19,-19,89,-231,-20,-94,16,-204,236,163,-20,-241,16,-131,-57,16,50,-19,-90,c
85,85,236,-90,163,89,163,-57,310,273,200,-20,126,126,126,200,297,261,156,c
156,85,310,15,310,200,347,52,273,273,126,-57,163,16,52,89,226,261,121,c
85,-19,236,-19,310,126,347,-57,200,163,163,-20,163,-20,126,16,332,297,261,c
191,191,420,261,531,347,494,200,310,347,310,200,273,200,310,200,402,437,332,c
15,-19,236,156,384,200,457,52,200,89,52,52,163,16,126,16,297,261,191,c
15,50,273,332,420,310,420,163,236,163,163,273,200,200,273,200,473,437,367,c
50,226,273,437,384,347,457,273,310,310,89,200,163,126,163,200,332,332,226,c
-55,15,89,191,126,89,236,126,236,200,-20,16,89,52,126,126,261,191,191,c
15,156,89,297,163,273,236,384,384,457,89,163,163,273,310,347,191,297,261,c
-125,-55,-131,85,16,89,200,310,310,384,-131,-57,52,89,89,200,-55,85,85,c
-125,-90,-131,50,-20,89,89,310,273,310,-20,52,52,236,200,347,50,121,191,c
15,121,-20,121,52,126,126,347,273,420,-20,52,89,200,126,347,-55,85,15,c
-125,-19,-131,-160,-94,-131,-20,52,89,236,-57,-20,16,16,52,163,-90,-55,-55,c
50,191,52,15,89,52,52,200,200,384,163,163,163,236,236,347,50,191,121,c
15,50,16,-90,52,-20,89,89,126,200,-20,-57,89,16,52,126,-90,50,-19,c
15,-19,-20,-160,52,-20,52,52,89,89,52,-20,89,126,163,163,50,85,121,c
156,191,126,85,163,236,200,200,126,200,126,126,163,200,163,236,50,191,85,c
50,85,16,-55,16,52,89,-20,-57,16,16,52,52,16,-20,16,15,50,50,c
191,332,163,121,200,236,200,163,52,163,236,273,200,310,200,236,191,297,261,c
156,332,126,85,200,200,273,126,52,126,89,163,163,200,89,52,50,191,156,c
121,191,89,15,163,89,236,52,16,52,126,163,163,200,163,16,226,191,261,c
261,332,236,261,347,310,347,236,126,200,200,273,236,310,236,200,226,297,297,c
85,121,89,85,163,126,236,126,-20,-20,-20,52,126,126,52,52,121,85,156,c
156,156,126,156,200,200,200,273,16,52,163,236,200,384,236,273,191,191,297,c
156,226,52,85,126,200,200,273,16,89,52,163,163,273,126,200,-55,85,121,c
50,85,-94,-90,16,16,89,126,-57,-57,89,126,126,200,126,89,-19,85,156,c
261,332,163,121,236,200,236,310,52,163,273,273,200,273,200,236,85,226,226,c
156,121,89,-19,126,52,200,200,-20,89,89,16,89,-20,16,52,-55,85,121,c
191,121,163,85,200,126,163,310,126,200,273,126,163,200,236,236,121,261,297,c
191,156,163,156,236,236,273,420,200,310,200,52,163,163,200,273,-19,226,191,c
15,-90,-94,-90,16,16,89,200,126,163,89,-57,52,52,126,163,-19,85,156,c
50,85,16,121,89,200,126,384,236,347,200,126,126,236,236,347,15,261,261,c
-90,15,-167,15,-57,52,52,200,89,200,-57,-57,-20,16,16,163,-160,85,15,c
-90,85,-167,50,-20,52,-20,163,52,200,16,89,-20,163,126,236,15,226,121,c
50,226,-20,226,126,200,163,310,163,347,-20,163,-20,236,89,310,-55,332,121,c
-90,-90,-131,-19,52,52,163,163,126,163,-94,16,-94,89,16,200,-19,226,226,c
50,15,126,156,273,273,347,347,347,384,200,236,126,310,236,384,261,402,473,c
85,15,236,156,273,236,420,310,236,273,89,52,126,89,89,163,226,261,367,c
85,-19,310,121,310,200,384,273,200,163,200,163,163,200,200,200,402,297,473,c
191,261,457,367,384,384,457,457,273,273,200,273,200,310,200,273,297,332,367,c
85,121,236,191,126,200,236,236,89,126,16,126,52,89,16,89,191,156,191,c
191,261,347,367,200,310,163,384,163,273,236,310,126,310,200,273,367,297,297,c
156,191,347,332,163,310,236,347,126,236,89,163,89,163,52,126,261,191,121,c
50,50,273,191,126,200,126,236,52,89,126,163,52,200,52,126,367,226,191,c
226,226,420,437,347,384,310,347,126,236,236,273,200,347,163,273,402,332,261,c
121,15,236,226,236,126,200,89,16,16,89,89,126,89,52,16,297,85,85,c
226,191,310,332,273,163,89,126,89,126,310,273,236,236,236,200,402,156,156,c
297,297,310,367,200,200,52,163,52,163,236,200,236,163,126,163,226,50,15,c
191,85,126,156,89,52,-57,52,-20,-20,200,163,163,163,126,89,261,15,85,c
297,261,273,332,236,273,89,236,89,163,310,384,236,347,273,273,261,191,121,c
156,156,89,156,89,126,52,126,-57,52,89,163,126,89,16,52,85,-19,-19,c
121,156,89,191,89,163,16,163,16,126,236,310,126,236,163,200,226,121,191,c
156,226,200,297,163,273,163,273,89,163,236,273,126,200,126,163,156,121,121,c
50,15,89,85,16,52,52,52,-57,-94,200,126,89,89,52,16,156,15,85,c
226,261,236,191,163,200,89,236,52,89,384,273,200,347,200,273,226,191,156,c
156,85,89,15,52,52,89,89,-20,16,126,52,89,163,16,89,15,15,15,c
121,-55,52,15,52,16,16,52,16,-20,200,163,126,273,200,163,156,85,156,c
226,156,163,156,163,126,163,163,126,89,200,200,163,236,200,126,121,50,121,c
50,-55,52,-90,16,-131,52,-94,52,-94,52,16,52,-57,89,-57,50,-160,50,c
156,85,200,15,89,16,52,52,126,89,200,163,126,126,236,163,156,-19,121,c
156,85,126,-19,16,-20,-20,-20,52,52,-20,16,52,-57,16,-20,50,-195,-19,c
156,50,89,15,-20,-57,-57,-94,52,-20,89,126,89,16,89,16,261,-160,85,c
261,191,236,226,126,89,52,52,200,163,126,200,126,89,163,163,226,-19,85,c
85,15,52,50,-57,-94,-20,-131,89,-20,-57,16,16,-94,16,-57,156,-90,-19,c
191,156,200,261,126,126,89,52,200,52,163,200,163,163,236,163,402,226,226,c
191,191,273,297,200,200,273,126,163,126,52,89,163,52,126,89,261,226,156,c
85,85,200,121,200,52,273,16,126,52,89,52,163,16,163,89,367,226,261,c
226,297,384,297,384,236,384,236,273,273,163,163,273,163,273,236,402,367,261,c
121,85,200,50,200,-20,273,16,236,89,-20,-94,126,-57,89,-20,191,156,50,c
156,85,273,85,273,-20,236,16,420,163,126,16,163,89,273,200,297,261,191,c
121,121,273,50,236,-20,273,52,531,310,16,-57,89,-20,200,163,50,156,50,c
-55,-90,52,-160,52,-167,89,-94,420,200,-20,-131,16,-94,163,52,50,15,50,c
85,121,126,121,126,89,126,89,420,310,126,89,89,89,273,200,85,121,121,c
-19,50,-20,-19,-20,-57,52,-94,200,126,-20,-57,-20,-131,52,-57,-55,-125,-55,c
15,50,16,-19,16,-20,-20,-57,200,126,126,52,89,52,236,126,85,-19,85,c
85,85,52,15,89,89,52,89,273,236,89,16,163,89,200,163,-55,-19,15,c
-90,-195,-131,-195,-57,-94,-20,-57,200,89,-20,-94,126,-20,126,16,-55,-90,15,c
15,15,52,15,126,126,126,126,347,236,200,163,273,200,310,200,50,121,191,c
-19,50,16,-125,52,-57,126,-20,236,89,16,16,163,-57,89,-57,-90,-19,15,c
-55,-19,-20,-90,52,-57,89,-57,200,16,89,126,200,52,200,52,50,121,156,c
50,85,126,121,200,163,236,126,236,163,126,126,273,163,236,163,15,261,121,c
-90,-125,-57,-125,89,-20,163,-57,52,16,16,-57,200,16,126,16,-55,156,50,c
-19,50,89,15,236,163,273,126,126,200,236,163,310,236,310,200,121,367,191,c
-19,15,52,50,200,163,310,52,16,126,89,16,200,52,126,-20,50,261,15,c
-19,-55,52,85,200,89,200,-57,-20,-20,200,52,200,52,200,-20,261,297,121,c
156,156,236,297,347,273,310,126,52,89,273,163,273,200,273,126,226,367,85,c
15,-55,52,85,200,52,163,16,-131,-20,89,-20,200,-20,52,-57,85,156,15,c
50,85,126,191,236,236,126,200,-57,89,273,200,236,163,200,126,191,297,156,c
50,191,52,191,126,273,89,273,-20,163,126,126,126,89,52,16,15,85,15,c
15,85,-20,50,-20,89,-20,163,-20,52,163,126,89,89,89,-20,121,15,85,c
156,261,163,261,89,236,52,347,126,310,273,310,126,236,163,163,85,121,156,c
50,85,-20,50,-94,52,-20,163,-57,163,52,89,16,52,-57,-20,-90,-55,15,c
121,121,52,85,-57,126,-20,236,-57,200,236,236,89,236,89,163,50,85,156,c
156,226,89,121,16,163,52,273,-57,236,163,126,89,163,-20,126,-90,50,15,c
-55,-19,-94,-125,-94,-57,-20,126,-94,126,52,16,16,52,-57,89,-160,15,85,c
85,121,-20,50,89,163,126,347,89,347,236,163,163,236,89,310,-125,261,297,c
15,-55,-131,-90,16,52,163,236,52,236,52,-20,126,16,-94,126,-266,191,191,c
50,15,-94,-55,126,89,200,273,163,273,200,89,200,126,89,236,-90,367,367,c
191,191,89,50,310,273,384,384,273,457,163,89,200,126,52,236,-125,402,297,c
50,15,-57,-125,200,89,310,200,163,273,52,-20,163,-20,16,126,-90,226,261,c
156,226,126,85,347,273,347,384,273,420,236,236,273,273,236,384,50,367,332,c
121,191,52,-19,236,163,273,310,200,420,52,52,200,89,52,273,-90,191,121,c
121,121,89,15,163,126,126,273,200,384,163,163,200,200,163,347,121,226,191,c
261,297,236,261,236,310,200,420,273,457,200,200,236,273,163,420,121,226,121,c
121,50,89,50,89,126,89,236,89,236,52,16,163,89,52,200,50,85,85,c
261,156,236,156,236,273,200,384,200,347,200,200,273,310,273,384,156,297,297,c
226,156,126,15,163,200,236,347,163,310,52,52,236,126,126,200,-90,156,121,c
121,85,-20,-125,52,52,89,163,89,163,89,52,200,163,163,163,-55,121,85,c
226,332,126,121,126,200,126,273,89,310,200,163,273,273,236,273,-90,226,50,c
85,85,-20,-90,16,-20,16,16,-20,126,52,-57,163,16,52,89,-160,85,-55,c
191,121,89,-19,163,89,89,89,126,200,273,89,273,200,273,310,-19,261,121,c
156,85,52,15,163,126,200,163,126,200,163,-20,236,126,163,236,-125,121,15,c
-19,-90,-57,-125,52,-20,52,16,-20,-20,89,-57,126,89,126,126,-19,50,85,c
156,121,89,121,163,200,163,236,89,200,200,163,163,273,236,273,50,156,156,c
85,50,-94,-55,16,89,89,89,-20,89,-20,16,16,89,16,126,-90,-55,15,c
156,156,-57,50,52,163,52,163,52,163,163,273,126,273,236,273,121,50,156,c
226,297,52,191,126,273,126,200,89,200,126,273,163,236,163,163,85,50,50,c
121,156,-57,85,16,126,-20,16,-20,-20,52,200,89,89,89,16,121,-19,-19,c
226,297,126,367,163,384,89,273,89,200,200,420,200,384,236,273,261,156,121,c
156,121,52,297,89,273,126,200,16,126,16,273,126,236,52,126,191,50,85,c
191,121,200,332,236,310,273,200,126,126,236,347,273,347,273,236,508,261,367,c
332,297,420,508,457,457,531,347,236,200,273,310,384,310,310,236,508,402,367,c
191,121,273,332,310,310,420,163,89,-20,163,163,273,126,200,52,473,297,261,c
261,297,384,543,420,494,420,347,163,163,273,384,347,384,347,236,543,437,332,c
191,191,310,437,310,347,384,236,89,126,89,236,200,200,126,89,332,226,156,c
121,121,273,332,273,200,273,126,52,52,163,310,163,273,200,163,402,261,226,c
261,332,347,473,310,347,347,310,89,236,163,347,163,347,163,273,332,297,156,c
85,156,126,261,126,126,163,89,16,89,-20,163,16,126,-20,89,261,50,50,c
156,226,200,367,200,236,163,200,273,273,163,347,126,384,163,273,402,156,191,c
156,191,163,332,126,163,89,126,273,236,16,236,52,200,-20,163,191,-19,-55,c
85,121,89,226,16,16,-57,16,163,89,89,236,52,200,89,126,226,-19,-55,c
226,332,236,437,163,273,16,236,163,163,236,347,200,347,236,200,226,85,-19,c
85,191,89,261,16,126,-57,52,16,-57,126,163,163,89,52,-94,121,-90,-125,c
191,297,163,332,126,236,-57,126,126,52,310,347,200,273,200,89,261,121,85,c
226,297,200,297,200,310,126,200,163,126,200,236,163,163,89,52,121,156,50,c
121,85,89,85,163,236,163,52,126,16,163,163,126,126,89,-20,226,191,191,c
261,261,310,332,420,457,347,310,200,200,310,273,273,310,200,200,332,402,332,c
121,85,200,191,310,310,310,163,16,52,126,52,200,89,16,52,226,226,156,c
156,85,310,226,384,310,273,200,16,89,310,126,273,236,200,200,367,332,332,c
226,226,457,261,494,347,384,236,89,163,310,52,347,200,126,163,297,332,261,c
156,50,310,50,347,126,310,52,-20,-20,236,-57,273,52,89,52,297,191,261,c
332,297,457,297,457,273,347,200,89,163,384,200,310,273,236,236,367,332,332,c
261,191,236,191,273,126,273,52,-20,52,126,89,200,52,89,16,85,121,85,c
191,156,163,156,163,52,126,16,-57,16,200,200,200,163,236,89,156,191,156,c
226,261,200,226,126,126,52,126,-57,126,163,163,200,163,200,126,-19,121,-19,c
50,15,-57,-90,-167,-131,-204,-94,-204,-94,16,-57,16,-57,16,-57,-90,-160,-160,c
156,191,126,121,-57,89,-167,52,-57,89,236,163,126,200,163,126,121,-19,-19,c
85,156,89,121,-131,52,-131,16,-57,-20,52,52,16,16,-20,-57,-19,-195,-125,c
50,50,16,50,-167,16,-204,-20,-20,-94,89,89,16,52,52,16,121,-90,50,c
191,226,126,191,-20,236,16,200,89,126,126,89,52,126,89,163,50,121,156,c
50,50,-94,-90,-94,89,52,52,16,-20,-57,-94,-20,-94,-20,-20,-90,85,156,c
121,156,52,50,126,236,236,163,126,89,163,126,52,126,126,163,121,332,332,c
121,156,126,85,236,273,347,89,126,16,52,16,16,-20,-57,16,50,261,191,c
85,15,52,-55,163,126,273,-20,89,-167,89,16,16,16,16,16,191,226,297,c
261,261,200,156,310,273,384,163,200,16,200,163,89,200,126,200,226,297,297,c
156,85,52,15,126,16,273,-57,89,-94,16,16,-20,-57,-20,16,85,50,121,c
191,121,126,85,163,16,200,-20,163,16,126,163,16,126,163,163,261,191,261,c
191,226,200,85,163,52,236,16,163,126,16,89,16,52,89,163,121,85,156,c
85,85,89,-125,52,-167,89,-167,126,-20,-57,-20,-57,-20,52,52,121,-55,85,c
332,332,200,85,126,-20,52,-20,200,89,163,89,52,89,163,163,156,-19,50,c
297,121,52,-125,-94,-204,-131,-167,89,-57,16,-131,-20,-131,16,-57,15,-266,-125,c
297,121,89,-19,-94,-131,-204,-94,163,16,236,89,89,52,163,89,156,-160,15,c
367,261,200,261,16,89,-94,52,200,89,200,126,126,52,126,16,121,-125,-19,c
191,15,126,191,-94,16,-131,-94,89,-167,126,52,89,-94,89,-131,191,-160,15,c
332,226,310,332,163,273,89,126,236,89,310,200,236,126,273,126,297,121,261,c
191,121,126,85,126,200,163,52,236,89,52,-57,126,-57,52,16,50,50,156,c
121,50,52,15,200,200,236,126,273,52,163,16,163,89,163,126,156,261,367,c
297,191,200,156,384,384,457,310,310,126,200,89,273,200,200,163,121,437,367,c
156,15,89,-90,310,163,420,126,163,-20,52,-94,163,-20,89,16,85,297,332,c
297,156,236,50,420,310,494,273,384,236,273,126,273,200,310,310,226,473,473,c
226,85,163,15,273,200,457,236,420,347,126,-57,163,52,126,163,15,332,332,c
156,-19,89,-55,200,89,347,200,531,420,200,-20,200,89,200,200,156,367,402,c
226,226,273,121,310,200,420,347,641,568,236,52,310,200,273,347,156,402,402,c
85,121,89,-55,89,-20,273,163,384,200,52,-94,236,16,126,163,121,191,191,c
191,226,273,121,200,52,236,273,310,236,273,126,310,273,273,384,332,297,297,c
191,121,273,85,163,16,200,236,273,273,126,16,236,163,89,236,121,85,121,c
85,-90,89,-160,16,-167,16,89,163,126,126,16,163,126,89,200,50,-19,121,c
191,121,163,-19,89,52,16,310,200,273,200,163,236,273,200,347,-19,50,85,c
15,-19,-57,-160,-94,-94,-94,126,52,52,16,-20,126,16,16,89,-125,-195,-90,c
50,85,52,15,16,89,-94,236,89,52,236,163,200,236,200,236,121,15,121,c
85,191,126,156,89,200,52,310,89,126,163,126,200,163,126,236,50,50,50,c
-55,-55,-57,50,-57,89,-20,163,-57,-20,89,52,126,52,89,126,121,15,50,c
121,121,163,332,163,347,163,347,52,200,273,310,273,310,310,273,261,297,191,c
50,-19,126,191,163,310,236,236,-20,89,126,126,200,126,200,89,191,226,121,c
85,15,273,191,273,347,273,273,16,126,310,200,273,273,384,236,367,367,297,c
156,156,420,367,347,457,347,384,89,200,310,163,347,273,310,236,297,332,226,c
15,50,310,226,163,236,200,163,-20,16,236,89,273,163,200,89,332,156,156,c
156,332,494,508,310,347,236,273,89,200,420,384,347,384,347,310,508,297,261,c
156,226,420,437,200,200,200,163,-57,126,200,200,236,163,89,89,332,121,50,c
191,156,420,437,200,126,89,89,-94,52,310,310,273,236,200,89,508,156,156,c
297,367,531,578,310,236,163,200,52,200,310,347,273,310,236,163,402,191,121,c
85,156,236,297,89,-57,52,-20,-20,16,89,163,126,89,126,-20,226,15,15,c
121,226,310,332,126,16,52,89,89,126,236,347,236,310,273,200,297,156,121,c
50,121,273,226,52,-57,52,16,16,52,126,200,163,163,89,-20,121,-19,-90,c
-19,50,200,121,16,-94,-57,-57,-20,-94,200,273,163,163,163,-57,226,15,-19,c
156,261,347,332,200,200,89,163,89,89,310,384,236,273,236,126,226,121,15,c
15,50,126,121,89,52,52,16,-20,-20,126,89,126,16,89,-57,121,-19,-90,c
85,85,200,261,163,200,89,163,126,89,310,236,200,236,273,163,261,226,156,c
85,156,200,297,200,273,163,236,126,126,126,163,126,163,163,89,85,191,50,c
-19,50,89,121,89,163,89,89,-20,-20,126,200,89,126,163,52,191,191,121,c
156,261,347,367,273,420,236,310,89,200,310,347,200,310,236,236,297,367,226,c
121,121,273,261,200,310,236,200,52,52,200,163,163,89,52,16,261,191,191,c
226,191,384,402,347,384,273,236,163,126,420,347,273,273,273,163,437,367,332,c
261,332,420,508,384,384,347,273,163,200,310,347,273,236,200,163,297,297,191,c
121,156,163,332,200,126,163,52,52,16,163,236,163,126,163,52,261,156,121,c
191,332,236,473,310,273,200,200,163,163,236,384,200,347,310,273,261,297,156,c
15,121,16,156,89,89,126,52,89,89,-57,52,52,52,52,89,-19,121,15,c
-55,85,16,50,89,52,52,52,163,163,89,126,52,126,163,236,121,191,156,c
85,191,126,156,163,126,126,163,236,236,89,163,89,163,89,236,15,156,50,c
-55,-55,-94,-55,-20,-57,-20,-20,126,52,16,52,-20,52,-20,126,-90,-19,-55,c
15,85,-57,121,52,163,-20,163,310,384,163,200,52,273,163,384,-19,156,50,c
-55,-19,-167,15,-94,126,-20,126,273,347,-57,-20,-20,52,-20,273,-195,-19,-90,c
-19,-55,-94,-55,-57,89,-20,89,310,163,89,52,16,126,163,310,50,15,121,c
191,191,163,156,163,273,163,236,420,310,163,200,163,236,236,347,85,85,156,c
50,-19,-20,-55,52,89,126,52,310,200,-57,52,52,52,89,163,-19,-19,121,c
85,85,16,121,200,273,200,200,310,310,126,236,126,310,273,347,121,261,297,c
15,85,-57,85,163,310,273,200,200,163,-20,89,126,163,89,163,-55,226,156,c
-55,-55,-94,-19,126,200,126,89,126,16,89,126,163,163,163,200,15,156,156,c
261,297,126,156,200,347,163,236,163,236,273,273,200,273,236,347,50,226,121,c
261,261,16,-55,89,126,52,52,16,16,126,126,126,89,89,126,-55,85,50,c
332,402,163,121,200,273,163,200,200,89,310,347,236,310,310,273,85,297,261,c
297,402,126,191,200,310,236,236,310,200,163,200,200,200,200,236,-55,261,121,c
156,156,-20,50,89,89,126,89,273,163,126,89,126,163,200,163,15,226,156,c
261,332,163,226,236,273,200,273,347,347,273,236,236,347,310,310,50,367,156,c
121,191,52,15,52,16,89,52,163,89,89,16,89,89,89,52,-90,121,-55,c
85,191,52,85,52,52,-20,89,163,126,236,200,163,273,236,200,85,191,85,c
121,226,126,156,52,163,52,236,200,273,126,200,126,273,200,236,-19,121,50,c
15,15,-20,-55,-94,-20,-20,89,163,126,89,163,89,163,163,126,15,15,85,c
226,261,163,191,126,200,126,273,347,273,273,384,200,347,310,236,156,191,226,c
156,156,52,121,52,126,163,163,310,126,89,163,126,126,126,-20,50,50,85,c
50,15,16,50,89,163,126,200,420,163,163,163,126,200,236,126,85,156,191,c
85,85,52,121,163,310,200,384,531,384,163,126,163,200,273,200,-90,226,156,c
-55,-125,-94,-90,16,89,126,236,420,273,52,-57,126,-20,163,89,-125,121,121,c
121,85,52,156,163,310,200,420,494,384,236,163,200,200,310,310,50,332,297,c
121,15,-20,156,126,236,236,347,310,236,16,16,89,-20,89,126,-90,226,156,c
50,-55,-94,85,163,163,236,273,310,200,126,52,126,16,200,200,85,261,367,c
156,191,89,261,347,347,420,457,420,384,200,126,236,126,273,310,121,367,402,c
-19,-19,-20,50,200,163,347,236,310,89,-20,-20,126,-57,89,89,15,191,297,c
50,15,89,121,273,236,310,347,384,273,126,163,163,163,236,420,121,297,402,c
15,15,16,85,163,163,273,273,310,310,-20,16,89,16,52,310,-90,156,191,c
-55,-55,-131,15,16,16,126,126,163,52,-20,52,16,16,52,200,15,121,226,c
121,191,16,297,163,236,236,236,200,200,126,236,126,200,163,347,85,261,261,c
-19,-55,-57,156,52,16,163,16,89,52,-57,52,52,-94,-20,200,50,50,85,c
85,50,126,261,126,16,126,52,126,89,163,310,126,52,163,273,297,85,156,c
191,261,236,332,126,52,89,52,126,89,89,273,89,-57,52,126,191,-19,-55,c
121,121,126,191,16,-57,-57,-94,89,-20,89,200,52,-131,16,89,297,-55,-55,c
297,261,310,473,236,200,89,126,273,200,310,347,200,89,236,347,402,121,50,c
191,121,236,297,163,52,89,16,52,-20,126,126,126,-94,16,126,226,-55,-90,c
226,191,273,261,200,89,16,52,52,-20,236,273,126,52,126,200,297,15,50,c
297,332,310,261,236,163,126,163,126,52,126,200,126,16,16,126,156,15,15,c
156,50,163,50,126,16,52,16,-20,-167,52,52,89,-131,-20,16,191,-19,121,c
297,226,384,261,384,273,273,273,163,163,273,236,236,126,200,347,402,191,402,c
297,191,310,156,384,236,384,273,163,126,126,126,163,-57,52,163,226,85,297,c
226,156,200,156,273,200,310,273,163,89,163,273,89,52,89,126,261,191,367,c
226,261,236,261,273,273,347,347,200,310,126,236,126,89,52,163,156,191,332,c
156,50,89,15,126,-20,236,89,236,310,89,16,89,-131,52,126,156,15,332,c
367,226,310,191,310,89,347,236,494,568,347,200,273,163,310,384,367,191,473,c
367,226,273,156,236,-20,310,163,310,384,163,126,200,-20,89,89,156,15,226,c
261,156,163,-19,126,-167,89,-57,52,126,200,126,200,-57,89,-57,156,-19,191,c
332,332,236,50,200,-57,89,-20,89,384,236,89,236,-20,126,89,85,15,85,c
156,50,89,-231,89,-278,52,-278,52,310,89,-94,126,-204,-20,-131,15,-160,-55,c
261,85,236,-55,273,-131,163,-241,236,420,347,126,200,16,200,-20,261,15,121,c
297,50,273,-55,273,-94,200,-278,89,273,200,16,126,-131,16,-241,85,-125,-55,c
156,-125,89,-231,89,-241,-20,-425,-131,16,126,-20,16,-204,-20,-351,85,-231,-90,c
226,50,163,-125,200,-94,89,-204,16,310,200,52,89,-57,126,-167,85,-160,50,c
85,-195,16,-336,89,-278,89,-315,16,236,52,-204,-20,-315,-20,-351,15,-371,15,c
85,-266,52,-301,126,-204,52,-278,52,236,163,-167,16,-241,163,-241,156,-231,191,c
121,-266,89,-336,163,-241,89,-278,-57,236,89,-315,-20,-425,89,-388,15,-336,85,c
-19,-512,16,-618,89,-425,16,-425,-241,126,89,-499,-57,-535,52,-535,15,-407,226,c
50,-407,236,-512,347,-204,236,-167,16,457,273,-425,89,-315,236,-278,85,-231,402,c
-125,-583,52,-723,273,-351,273,-315,16,347,16,-572,-20,-535,89,-499,-90,-477,261,c
-125,-547,89,-759,273,-462,163,-425,52,273,163,-425,16,-425,236,-462,50,-477,367,c
-90,-477,126,-688,310,-425,236,-388,89,347,89,-425,89,-499,236,-462,-55,-512,261,c
-336,-794,-131,-935,89,-646,126,-609,16,236,-94,-609,-20,-646,200,-572,-125,-653,191,c
-266,-653,-20,-688,126,-499,126,-462,16,420,52,-425,52,-425,347,-388,-19,-477,226,c
-371,-759,-167,-794,-57,-646,16,-609,-131,531,-167,-646,-57,-609,52,-535,-266,-618,15,c
-442,-794,-131,-794,-57,-683,-57,-646,-57,604,16,-535,-20,-462,163,-425,-125,-477,156,c
-336,-583,89,-653,126,-462,163,-499,52,752,126,-462,52,-351,200,-388,-90,-371,191,c
-371,-759,16,-864,52,-646,163,-683,-57,531,52,-572,-20,-535,126,-572,-55,-477,226,c
-231,-547,236,-583,273,-388,310,-425,52,752,273,-278,163,-241,347,-351,156,-160,402,c
-266,-407,163,-371,273,-241,347,-315,-20,862,89,-241,126,-351,163,-425,85,-160,226,c
-301,-301,126,-195,236,-204,273,-278,-94,788,163,-94,126,-241,163,-351,297,-90,332,c
-90,50,347,121,384,52,347,-20,16,972,310,52,200,-20,236,-167,367,15,402,c
-160,-90,236,-90,236,-167,273,-167,-57,936,163,-131,89,-204,52,-315,261,-160,297,c
-90,15,347,-19,310,-20,273,16,126,1156,347,89,163,89,273,16,367,50,508,c
-125,50,347,50,310,89,384,163,163,1193,236,89,200,89,236,16,226,15,437,c
-266,15,273,-55,273,16,273,126,52,862,273,89,200,89,273,-20,297,50,437,c
-231,297,420,156,384,273,310,310,89,936,384,236,236,310,310,163,297,226,367,c
-407,121,200,-19,163,126,163,163,-94,715,126,-20,52,89,52,16,156,50,191,c
-371,121,236,50,236,200,200,236,-20,678,273,126,89,384,236,200,332,226,367,c
-266,191,273,156,273,310,310,273,16,641,200,89,126,347,200,163,191,226,261,c
-301,85,200,-19,200,126,273,89,-20,384,236,126,163,236,236,16,191,191,332,c
-90,332,384,226,384,347,384,310,126,531,420,384,310,457,384,200,226,437,367,c
-195,226,126,121,163,236,273,200,-131,384,126,200,126,236,126,52,-19,261,85,c
-266,261,52,156,16,200,52,200,-204,384,163,273,89,384,163,273,85,297,50,c
-160,402,163,332,16,310,16,236,-94,347,163,273,89,457,126,310,50,226,-90,c
-195,191,89,121,-94,89,-94,16,-167,-94,89,163,16,273,89,89,121,15,-125,c
15,402,310,332,89,273,52,200,-94,16,310,347,163,457,310,273,261,191,50,c
-19,297,163,156,16,163,16,126,-131,-57,89,89,89,200,126,163,50,50,-90,c
-19,226,89,156,16,126,-57,126,-131,-167,163,163,163,310,236,236,156,191,50,c
85,402,236,402,200,347,126,347,-20,-94,236,310,236,420,273,310,121,297,85,c
-55,261,89,191,126,200,126,200,-167,-351,89,126,163,236,126,52,50,226,85,c
85,437,236,297,273,384,200,420,-20,-278,273,310,236,494,310,236,191,473,332,c
85,367,200,261,236,420,273,420,-20,-351,89,163,126,347,89,126,50,367,226,c
50,226,163,191,163,384,236,310,-20,-425,89,273,89,420,89,163,191,437,367,c
191,473,273,437,310,604,420,494,126,-204,163,420,163,568,200,310,226,578,402,c
85,297,89,191,163,347,384,310,16,-388,-20,200,126,310,52,126,156,367,332,c
191,297,200,261,273,420,420,384,163,-278,236,310,273,494,273,310,367,543,508,c
191,261,273,261,273,420,457,384,200,-204,126,200,236,384,163,236,261,402,297,c
121,297,163,156,89,200,200,126,16,-351,89,200,163,273,126,89,261,297,156,c
402,649,347,437,126,347,163,236,52,-131,236,384,236,420,236,200,297,367,85,c
332,473,200,261,-94,89,16,-20,-57,-241,52,163,126,126,52,-20,121,85,-125,c
332,473,200,332,-131,89,-131,-20,16,-94,236,310,126,310,163,163,226,121,-90,c
332,508,163,367,-131,126,-131,16,52,126,126,200,89,273,16,200,15,50,-266,c
156,261,-20,121,-241,-94,-278,-167,16,16,16,52,16,89,-20,52,50,-90,-301,c
332,437,163,332,-57,126,-204,52,200,236,163,236,126,273,126,273,191,121,-195,c
226,297,16,191,-131,89,-167,-20,126,126,-57,52,52,89,-57,52,-19,15,-301,c
191,226,52,156,-57,89,-131,52,89,52,52,163,163,200,89,163,85,191,-55,c
332,332,200,297,163,273,89,236,163,163,52,126,273,236,89,236,50,261,15,c
156,50,89,121,89,89,89,126,126,-20,-20,-20,200,52,-20,126,85,191,50,c
261,226,273,367,310,347,236,384,347,200,200,200,347,273,236,420,261,437,261,c
156,261,163,261,236,310,310,347,420,163,16,52,310,126,89,273,85,332,156,c
121,261,126,191,200,273,236,310,457,-20,126,163,384,236,163,310,226,367,261,c
297,437,273,367,310,457,347,531,568,89,163,273,420,347,236,457,226,402,261,c
156,156,52,191,89,273,163,310,420,-94,-20,126,273,163,52,310,121,191,85,c
226,332,163,402,126,384,126,384,457,16,126,384,347,384,236,494,226,332,121,c
156,367,89,402,16,347,89,273,347,-94,-94,236,236,236,52,310,15,156,-160,c
15,226,-57,191,-131,163,-131,126,273,-278,-94,200,163,236,89,310,85,50,-125,c
85,402,52,367,-20,310,-57,273,310,-131,52,347,200,420,163,531,50,85,-160,c
-301,191,-131,156,-241,52,-241,52,89,-315,-57,126,126,163,-57,273,-90,-125,-371,c
-336,226,16,261,-167,89,-278,89,126,-315,200,273,236,310,126,420,85,50,-231,c
-231,261,89,261,-131,126,-204,89,126,-315,126,200,200,236,16,347,-19,15,-371,c
-231,85,-57,85,-204,-20,-278,-57,16,-535,89,163,126,163,16,200,50,15,-301,c
15,367,163,297,16,236,-57,163,126,-315,273,347,200,347,126,347,156,261,-55,c
-55,261,16,156,16,163,52,126,89,-315,52,126,89,89,-57,163,15,191,-19,c
-19,261,52,226,126,310,126,310,200,-204,200,273,163,273,89,347,191,437,261,c
85,297,126,367,273,494,347,494,310,-94,163,310,273,310,89,347,156,473,297,c
-19,121,16,156,200,310,310,310,200,-278,126,200,273,200,89,236,156,437,367,c
156,297,200,367,420,531,457,531,347,-94,347,384,420,457,273,457,261,649,543,c
85,156,89,261,310,457,457,494,273,-167,163,200,347,273,89,310,121,473,437,c
156,191,163,297,347,457,420,531,310,-167,310,347,420,420,236,420,297,578,578,c
297,437,347,473,494,604,531,641,347,-20,347,420,457,457,273,457,226,613,473,c
191,261,200,261,273,347,384,420,236,-241,200,310,273,273,163,273,156,402,332,c
367,402,310,473,310,457,310,531,347,-57,384,531,310,494,310,531,297,508,332,c
367,367,273,437,126,347,126,384,200,-57,200,384,200,310,126,420,85,261,-19,c
261,297,236,332,16,200,-57,236,89,-167,273,384,163,310,236,457,191,261,-55,c
332,473,347,473,126,384,16,384,163,-20,310,457,236,420,273,494,121,367,-90,c
156,297,163,261,-57,163,-57,163,52,-241,52,273,89,236,126,273,121,156,-195,c
332,402,310,473,89,310,-20,273,126,-131,236,457,126,457,236,457,402,332,15,c
578,473,347,543,126,310,89,236,126,-94,163,347,89,273,89,384,332,261,-55,c
543,367,273,473,126,236,89,163,163,-131,200,384,89,273,126,384,437,332,85,c
684,649,420,719,310,494,236,420,310,52,310,531,163,457,236,494,437,473,191,c
543,543,200,508,163,347,163,310,126,-131,126,347,89,273,52,310,191,332,85,c
543,543,236,543,236,457,163,457,200,16,273,494,200,494,236,531,297,473,261,c
473,543,236,508,273,568,273,604,347,200,126,347,200,384,163,494,85,437,191,c
297,261,16,261,126,420,163,494,310,52,89,236,163,273,163,384,85,437,332,c
402,437,200,508,347,715,347,752,384,236,273,420,310,494,347,494,191,684,508,c
332,226,89,402,310,604,420,678,273,126,89,236,273,273,200,310,50,543,402,c
332,226,89,402,347,604,420,752,347,236,200,347,273,420,347,457,121,649,543,c
332,367,89,437,310,678,420,825,420,384,89,310,236,420,273,494,-125,613,402,c
156,121,-131,156,52,384,200,531,420,236,-20,200,89,310,163,347,-195,437,261,c
226,261,16,297,126,420,163,568,604,420,163,347,200,494,273,604,-125,473,261,c
85,121,-94,121,-57,236,52,384,568,310,-57,126,52,273,52,420,-266,226,50,c
15,15,-131,156,-57,200,-20,347,568,236,16,236,89,347,163,494,-55,261,121,c
156,156,52,367,89,347,89,457,641,347,52,273,163,347,200,531,-19,297,50,c
85,-19,-94,191,-94,126,-57,236,457,89,-94,126,89,163,89,273,-55,121,-55,c
191,156,52,402,52,310,-20,384,457,89,52,384,126,384,273,420,121,297,121,c
121,121,-20,297,-20,310,52,384,384,52,-94,236,52,273,89,310,-55,191,15,c
50,15,-94,50,-20,273,16,347,310,-57,-20,273,52,347,163,384,50,297,226,c
261,226,89,121,163,494,236,568,347,89,163,347,200,494,236,494,50,473,332,c
121,15,-57,-125,89,310,236,420,163,-94,52,126,200,273,126,310,-19,332,297,c
226,85,89,-19,236,494,310,604,236,-20,236,310,310,531,347,531,121,543,508,c
261,121,89,15,236,531,347,641,236,16,126,236,273,420,200,457,15,508,367,c
156,-19,16,-55,200,384,273,531,163,-20,126,200,273,384,236,420,191,473,473,c
297,261,273,261,420,604,457,752,310,200,273,347,384,568,347,604,332,613,543,c
226,156,163,85,273,384,384,568,200,16,52,163,236,347,163,347,191,367,367,c
297,226,273,85,273,384,273,531,273,52,236,384,273,531,310,494,297,437,402,c
332,332,310,121,236,347,236,531,236,126,126,347,236,457,200,457,121,332,156,c
121,121,163,-55,52,126,52,310,126,-57,89,200,163,310,163,310,191,156,121,c
261,332,310,191,163,273,89,420,236,52,200,347,236,494,310,457,297,191,85,c
156,191,126,15,-94,52,-94,163,126,-131,-57,126,126,200,89,236,121,-90,-195,c
121,156,89,15,-131,-20,-278,89,52,-94,16,236,89,273,163,347,226,-55,-195,c
156,367,163,191,-94,163,-204,200,89,52,-20,310,89,273,89,347,156,15,-266,c
156,261,89,121,-94,89,-204,52,52,-57,16,273,52,163,89,273,297,-19,-160,c
437,402,457,402,273,310,89,236,347,163,384,457,310,384,420,531,543,191,121,c
437,261,420,226,310,236,163,126,310,89,273,236,273,163,200,347,367,85,15,c
332,156,310,85,273,200,89,126,236,-94,310,310,236,273,200,347,332,156,156,c
332,226,310,191,273,384,163,310,163,-57,200,310,163,347,163,384,156,226,121,c
85,-19,16,-19,52,200,52,126,16,-241,16,163,52,126,16,200,15,50,50,c
191,85,89,121,200,310,163,273,236,-57,200,310,163,347,236,457,156,226,261,c
156,50,52,50,126,200,200,200,200,-131,52,52,89,163,89,273,-19,50,50,c
121,-55,-20,-125,-20,-20,16,-20,52,-351,89,16,52,126,89,163,50,-55,50,c
297,191,163,50,89,89,16,89,126,-131,200,126,126,236,200,310,15,50,-19,c
121,-19,16,-195,-94,-167,-131,-94,-20,-241,16,-57,16,16,52,163,-160,-125,-195,c
156,15,89,-160,16,-94,-94,-20,89,-167,200,126,126,200,236,310,-19,-90,-90,c
156,85,89,-125,16,-131,-94,-131,52,-241,89,89,89,89,89,52,-195,-231,-371,c
50,15,-94,-160,-131,-241,-315,-351,-57,-462,52,89,52,16,52,-20,-90,-266,-442,c
191,226,126,85,52,52,-167,-131,126,-204,200,200,126,236,163,200,85,-125,-301,c
156,15,52,-55,-20,-94,-94,-241,126,-241,52,-20,16,52,-57,52,50,-266,-301,c
261,50,126,50,52,16,-57,-131,126,-131,236,126,16,236,89,163,226,-55,-55,c
332,121,163,261,89,200,52,52,126,-57,163,126,52,126,16,52,121,50,-55,c
191,-19,16,156,52,52,52,-57,-20,-204,163,126,16,-20,-20,-131,156,50,50,c
332,297,200,402,236,310,200,200,126,-20,347,310,200,200,200,52,261,297,226,c
226,121,52,226,126,200,236,126,89,-57,89,89,126,-20,52,-57,15,156,121,c
121,50,16,226,126,236,200,200,163,52,163,200,200,126,236,163,85,332,297,c
121,226,89,332,236,384,347,347,126,163,52,200,200,200,200,200,-19,367,261,c
15,50,-94,50,126,163,236,163,-20,-57,-94,52,126,16,89,16,-90,297,261,c
191,261,52,261,236,347,310,384,126,126,89,236,200,273,273,273,15,508,367,c
121,226,-57,226,163,236,310,273,52,163,-57,126,163,126,126,163,-125,367,226,c
50,121,-20,226,200,126,273,236,126,89,52,200,200,236,273,236,85,367,332,c
191,261,163,402,310,273,384,384,273,236,52,236,200,347,310,310,156,367,332,c
85,50,-20,226,89,52,236,126,163,16,-131,89,52,126,89,52,121,121,156,c
191,191,163,437,163,236,200,200,236,126,89,310,126,347,236,236,297,261,226,c
156,226,126,437,126,236,126,126,163,126,-57,236,52,200,89,163,121,121,-19,c
15,85,89,332,52,163,16,52,126,126,16,236,16,200,89,200,261,121,85,c
156,226,310,613,236,457,163,310,273,457,163,384,126,347,200,384,332,261,121,c
85,121,200,473,126,310,89,163,163,236,16,163,52,126,52,163,261,156,15,c
226,297,347,613,273,384,89,273,236,236,200,384,126,310,236,273,402,332,156,c
261,367,347,578,273,384,163,310,236,310,89,310,89,236,89,200,191,226,50,c
85,191,163,332,163,163,52,163,89,200,52,236,52,200,16,163,156,191,85,c
156,332,273,508,310,384,163,384,163,420,163,384,163,420,163,457,156,402,226,c
50,121,126,332,200,236,236,273,200,273,16,163,163,163,52,236,85,261,261,c
156,156,236,402,347,310,347,384,384,347,236,310,273,347,273,310,367,402,508,c
261,297,347,543,384,420,457,531,420,531,200,310,273,347,200,347,297,367,437,c
121,85,236,367,200,273,310,384,163,200,126,236,200,273,89,200,332,226,367,c
226,332,457,578,384,457,384,604,236,310,347,420,310,531,273,420,473,402,473,c
156,261,420,508,273,347,310,494,236,347,200,273,200,310,89,310,332,191,297,c
121,226,457,543,273,310,236,494,273,384,347,420,273,457,236,420,543,226,402,c
191,332,531,684,347,420,310,568,273,457,347,457,347,494,236,420,437,191,226,c
-19,85,273,437,52,163,16,310,-20,163,126,273,200,273,89,163,297,15,-55,c
121,261,310,613,126,347,16,384,16,236,310,457,236,494,200,310,367,226,50,c
121,191,200,508,52,310,89,310,-20,163,126,273,126,310,16,126,156,121,-90,c
85,156,126,402,16,236,16,200,-57,126,200,310,89,310,52,126,226,191,50,c
226,437,200,578,163,384,163,347,16,347,200,420,126,420,52,200,191,297,85,c
50,226,-20,297,16,163,126,126,-131,126,-57,273,-20,163,-94,-20,50,121,85,c
191,261,52,402,200,310,236,273,-20,126,126,420,52,347,89,126,226,402,332,c
191,226,52,402,236,347,347,273,16,163,16,236,52,163,-20,16,85,332,226,c
85,85,16,261,236,200,236,89,-57,89,89,236,126,163,52,-20,191,332,226,c
191,297,200,473,384,384,310,200,16,200,236,420,236,347,163,163,226,402,191,c
85,191,16,226,236,89,236,-57,-131,-20,52,163,52,52,-20,-57,50,156,15,c
156,261,89,261,273,89,163,-57,-20,89,200,236,89,200,163,126,156,226,121,c
121,261,89,226,236,89,163,-20,16,273,89,163,52,126,16,126,-19,85,-55,c
-55,50,-57,15,89,-94,16,-167,-57,89,16,126,-20,16,-20,16,15,-19,-19,c
85,261,89,226,200,126,126,52,89,273,163,310,89,200,126,163,121,156,85,c
15,121,-57,50,16,16,52,-57,-20,126,-57,16,-20,-57,-20,-20,-55,-19,-55,c
50,121,16,85,52,89,52,89,16,200,126,89,89,89,163,163,156,121,156,c
191,191,200,261,163,273,200,273,89,347,126,89,126,163,126,163,85,156,156,c
121,15,126,121,89,200,126,126,16,89,89,16,126,89,52,16,156,121,156,c
332,261,347,402,310,494,236,384,200,273,347,273,273,347,273,236,332,367,367,c
261,191,310,332,310,420,347,310,236,273,163,89,200,126,89,52,191,297,332,c
226,191,347,261,457,420,457,310,347,310,310,126,236,200,200,126,332,473,578,c
367,367,420,402,604,568,568,457,420,420,310,126,273,236,163,163,226,508,508,c
226,156,200,121,420,310,457,200,236,200,163,-20,163,16,52,-20,156,332,402,c
332,297,347,261,568,457,494,310,310,310,347,163,273,236,236,200,297,508,508,c
261,226,236,191,420,384,420,236,236,236,163,16,200,89,52,16,121,297,226,c
191,191,163,121,273,236,236,89,163,126,236,89,163,126,126,16,226,226,191,c
332,437,347,261,310,310,236,200,163,310,273,200,200,236,163,163,191,191,50,c
191,226,163,85,52,89,52,-20,-57,89,126,-20,89,16,-20,-20,121,-19,-125,c
261,261,310,297,163,273,52,126,-57,126,347,236,163,273,163,126,367,156,-19,c
261,297,384,402,200,347,89,126,-57,163,236,163,126,200,16,16,297,50,-160,c
156,191,310,332,89,200,-20,16,-20,89,200,200,89,163,52,52,402,-19,-90,c
297,402,457,543,200,384,89,236,126,347,310,347,236,310,236,310,473,121,-19,c
156,226,273,367,52,200,16,89,-20,200,126,126,163,52,52,52,332,-19,-160,c
261,367,310,473,89,273,16,163,16,236,310,273,200,200,163,126,437,191,15,c
367,473,310,508,52,347,52,236,52,310,200,200,163,163,52,126,191,191,-19,c
191,226,89,226,-94,126,16,126,89,200,126,126,126,89,52,89,156,121,121,c
297,367,236,297,126,310,236,310,310,384,273,273,273,310,273,310,156,297,332,c
191,191,16,-19,52,89,273,163,236,200,89,52,200,89,89,126,-90,85,191,c
156,85,16,-90,89,52,163,163,163,200,200,126,273,200,200,200,-19,191,297,c
226,191,52,15,126,163,200,236,163,273,163,52,236,200,126,200,-125,156,156,c
50,15,-94,-195,-57,-57,52,52,52,89,89,-57,163,16,52,16,-125,15,50,c
191,226,126,85,126,126,126,200,126,236,310,200,273,236,236,236,50,191,156,c
85,85,52,15,89,52,89,52,52,163,126,52,200,52,16,52,-125,15,-19,c
15,-19,16,-55,89,16,52,16,89,163,236,89,236,163,163,126,50,85,156,c
121,121,163,121,273,200,200,126,310,310,273,126,310,236,200,126,50,121,156,c
50,-90,52,-90,126,16,163,-57,236,89,163,-20,200,16,89,-57,15,-19,121,c
226,50,200,50,200,200,200,89,384,236,347,163,310,236,273,200,191,191,297,c
191,50,163,50,163,200,236,89,310,163,89,16,236,52,89,16,85,121,156,c
85,-19,89,50,126,126,200,-20,236,16,126,52,236,126,126,-20,261,121,261,c
226,226,273,297,347,310,384,163,273,236,273,163,347,236,200,126,297,226,297,c
156,85,126,85,273,89,310,-20,89,16,163,16,273,52,89,-57,226,50,121,c
332,191,236,226,347,200,310,89,126,52,384,200,347,273,273,126,367,191,261,c
332,226,200,226,310,200,347,89,200,126,236,126,273,126,126,16,191,85,156,c
121,15,89,50,163,52,200,-20,200,16,200,126,273,89,126,-20,191,50,191,c
191,191,273,226,273,236,273,200,273,163,310,273,347,273,273,163,191,121,191,c
85,15,89,50,52,89,89,52,89,-20,89,52,236,52,52,-57,50,-160,-55,c
156,85,163,121,16,89,-20,52,126,16,273,200,310,200,236,52,261,-125,15,c
261,191,236,191,16,89,-20,89,126,89,236,126,310,126,163,-20,121,-231,-125,c
50,-55,16,-90,-131,-167,-167,-167,16,-57,126,16,236,16,126,-94,15,-336,-160,c
121,85,89,15,-20,-57,-131,-20,89,200,236,126,236,200,236,126,15,-160,-90,c
15,-90,-131,-125,-204,-278,-241,-204,-94,89,-20,-131,89,-94,52,-131,-195,-336,-301,c
15,-90,-131,-125,-204,-315,-315,-278,-131,-20,163,-57,126,-94,200,-94,-55,-195,-160,c
121,85,16,-19,-57,-167,-167,-131,-94,-57,163,-94,163,-131,126,-94,-125,-160,-195,c
-19,-55,-94,-231,-167,-315,-204,-278,-241,-315,52,-167,52,-241,16,-278,-125,-231,-160,c
156,121,126,15,89,-94,-57,-57,-94,-20,236,89,163,16,200,-20,85,-19,85,c
121,85,89,-19,52,-131,16,-94,-57,16,16,-94,89,-204,52,-131,-55,-125,-55,c
85,15,52,-55,16,-131,-20,-131,-57,-20,126,-20,52,-131,163,-57,156,-55,85,c
261,226,236,191,163,52,126,52,16,126,236,126,89,16,163,16,191,15,121,c
191,50,163,15,52,-94,89,-131,-57,-20,126,16,16,-57,16,-131,191,-125,50,c
332,226,310,191,236,52,126,16,89,126,347,273,126,200,200,89,332,15,121,c
297,226,236,121,126,-20,89,16,16,89,163,126,89,16,52,-20,85,-125,-55,c
156,15,89,-19,16,-167,-20,-57,16,52,163,89,89,16,163,16,156,-90,50,c
297,156,236,156,200,16,126,163,200,273,273,163,200,163,236,163,156,50,121,c
156,-19,89,-55,89,-167,89,-20,89,52,126,-20,126,-57,89,-57,15,-125,15,c
297,121,163,50,200,-57,126,52,163,200,347,126,236,126,273,126,191,85,191,c
297,191,200,121,273,16,236,89,163,310,273,16,273,16,163,52,85,121,156,c
121,-19,89,-19,200,-57,200,-20,126,163,200,-57,273,-57,200,16,156,156,297,c
226,156,236,156,420,163,384,200,310,310,310,89,384,163,384,236,156,332,402,c
85,-55,89,-55,273,52,347,52,200,163,89,-94,236,-57,163,52,15,121,226,c
156,-19,126,15,310,126,310,89,200,163,236,89,310,163,310,200,191,261,332,c
226,156,200,121,384,236,384,163,163,163,163,126,310,126,236,89,50,261,156,c
85,15,52,-19,236,16,273,-57,89,16,89,52,200,-20,163,-57,85,121,156,c
261,261,236,191,384,236,384,200,273,273,310,236,273,163,310,126,226,297,297,c
121,121,89,50,200,126,310,126,163,200,52,-20,126,-20,52,-20,50,85,121,c
50,15,16,-19,126,126,200,163,236,273,89,89,126,126,236,126,121,156,226,c
85,121,16,85,126,236,236,310,384,494,16,126,126,163,236,236,-19,156,156,c
-90,-90,-204,-125,-20,52,126,163,347,384,-131,16,16,52,126,126,-90,15,121,c
15,121,16,121,126,236,200,347,531,568,126,273,126,310,273,420,121,226,261,c
50,121,16,85,89,163,236,236,457,420,16,163,52,163,89,273,-19,50,15,c
50,50,16,15,52,52,126,89,347,273,163,273,52,236,126,273,85,85,50,c
226,261,163,191,236,163,236,163,420,457,273,347,126,273,200,310,85,191,15,c
85,85,16,15,126,-94,126,-94,273,273,89,163,52,16,52,126,50,50,-90,c
121,191,163,191,236,16,126,16,236,310,310,273,163,236,273,273,191,226,15,c
121,191,126,156,163,-20,126,16,126,200,200,126,126,52,126,126,15,121,-90,c
50,15,52,50,89,-94,89,-57,89,52,200,89,126,16,163,52,156,121,50,c
226,261,236,367,236,163,200,236,273,310,310,273,236,163,273,200,226,261,121,c
121,121,126,226,89,89,126,163,126,236,126,163,89,16,89,52,156,85,15,c
191,261,236,402,163,310,126,384,163,310,273,384,200,273,273,236,332,261,191,c
156,367,236,402,163,384,163,457,89,310,126,310,163,236,126,163,156,191,15,c
-19,156,89,156,16,163,16,236,-20,126,52,236,89,163,89,89,191,85,15,c
121,332,236,367,200,310,163,310,163,310,236,420,163,347,236,310,261,226,85,c
50,156,126,226,89,126,126,89,52,126,89,236,52,89,16,89,121,85,-90,c
156,191,163,261,126,200,89,126,16,52,236,347,89,236,163,163,226,191,50,c
261,297,200,297,126,273,126,163,-57,52,163,273,126,163,126,126,85,121,-90,c
121,50,16,15,-20,16,-20,-20,-94,-57,89,89,52,16,126,16,15,15,-125,c
226,226,200,191,126,200,52,163,52,200,273,236,163,200,273,236,121,191,-19,c
156,156,126,50,16,52,52,52,-20,126,126,16,52,-20,16,89,-55,15,-125,c
156,50,126,15,52,52,16,52,16,126,273,126,89,89,126,163,121,121,85,c
261,121,236,121,200,236,200,236,89,273,236,126,126,89,163,236,50,226,121,c
50,-125,52,-55,89,89,163,89,16,126,89,-57,89,-94,89,52,15,156,85,c
156,121,200,191,236,273,236,273,163,273,236,163,200,163,273,236,191,332,226,c
121,156,126,156,89,163,163,200,126,200,-20,52,89,-20,89,89,50,121,15,c
-19,15,16,85,16,16,52,52,163,163,16,89,89,16,200,126,191,121,121,c
85,156,273,261,200,200,200,236,310,347,89,163,163,126,310,273,261,191,156,c
15,-19,200,85,126,-20,163,52,236,126,-57,16,52,-57,126,52,261,15,85,c
191,121,384,226,273,126,200,126,310,236,200,236,163,126,273,200,473,191,191,c
226,121,347,156,273,126,200,89,236,200,52,126,89,16,126,89,261,50,-19,c
85,15,163,-55,126,-57,52,-20,89,16,52,89,16,-20,126,89,226,-19,-55,c
121,156,236,50,200,89,52,126,126,236,126,200,89,163,236,236,121,50,-55,c
-90,-55,-20,-160,-20,-131,-57,-57,16,126,-94,-20,-20,-94,52,16,-55,-231,-195,c
15,-19,16,-90,-20,-94,-131,-20,89,200,89,126,16,89,200,200,121,-125,-90,c
85,15,16,15,-94,-57,-131,-20,89,163,-20,52,-20,-20,52,163,-55,-160,-231,c
-90,-195,-167,-160,-204,-241,-241,-204,52,16,-57,-20,-131,-94,16,89,-19,-231,-195,c
15,15,52,85,16,16,16,16,310,310,126,163,16,126,163,310,121,50,15,c
-90,-90,16,-90,-20,-94,89,-57,310,236,-20,-20,-57,-94,52,89,-19,-19,-55,c
-55,-55,89,-19,52,-20,126,52,310,163,163,126,52,52,200,200,156,191,226,c
85,121,236,191,163,200,273,273,310,236,126,163,89,89,163,200,121,226,261,c
50,-55,89,15,52,52,200,163,236,200,52,89,89,-20,89,89,121,121,297,c
261,191,273,226,310,273,347,347,420,457,310,310,236,200,310,347,261,332,473,c
226,156,273,156,273,200,384,273,384,384,163,163,200,16,163,163,121,191,297,c
156,85,273,156,273,163,273,236,384,384,273,236,273,52,310,236,297,297,402,c
261,261,420,367,384,310,347,420,420,531,310,236,310,126,310,310,261,367,332,c
121,85,236,156,236,126,236,200,200,273,236,89,200,16,163,163,261,191,261,c
261,226,420,332,420,310,347,384,347,420,457,273,310,273,347,347,367,367,437,c
226,156,347,261,347,273,347,384,347,494,200,126,236,126,200,200,156,226,226,c
85,15,200,121,200,163,163,273,273,384,200,163,200,200,236,200,226,191,226,c
191,226,310,332,236,310,200,420,273,457,236,273,200,310,273,310,191,226,191,c
15,50,163,121,16,126,89,200,89,236,52,89,126,89,52,89,85,85,121,c
50,156,273,261,163,236,163,347,236,384,273,310,236,310,236,273,191,297,297,c
121,191,236,297,200,273,236,347,236,420,163,273,200,200,126,163,50,226,191,c
121,85,126,156,163,126,200,200,163,236,200,273,236,163,163,89,121,226,297,c
332,297,273,332,420,384,384,420,273,420,347,420,347,384,310,273,156,437,437,c
191,121,126,121,273,236,347,273,89,163,126,200,236,163,126,89,15,226,297,c
226,156,163,156,310,310,273,347,52,163,310,347,236,384,236,273,191,332,402,c
297,332,273,261,347,420,310,384,52,236,236,310,200,310,89,200,156,226,261,c
226,191,200,156,200,236,200,200,-20,52,200,236,126,200,89,89,261,121,261,c
402,402,384,402,310,457,236,384,163,273,347,420,200,384,236,273,367,261,367,c
332,297,236,297,126,310,126,310,126,273,126,200,52,89,16,163,226,50,191,c
297,297,200,332,89,310,16,310,163,310,200,310,52,200,126,273,367,121,297,c
332,402,236,437,163,384,89,384,200,420,163,273,89,163,89,273,226,121,261,c
121,191,16,156,52,126,16,126,126,236,52,89,16,-20,16,126,191,15,226,c
226,297,163,261,273,236,89,236,236,273,236,236,126,200,200,310,261,156,332,c
121,121,89,121,163,126,16,89,89,52,52,16,52,-20,16,52,50,-19,85,c
50,-19,89,15,163,52,-94,-20,16,16,163,52,89,52,163,126,156,-19,156,c
121,121,236,85,273,163,16,89,126,236,163,52,126,89,200,200,50,15,121,c
-125,-160,89,-160,89,-94,-131,-94,52,52,16,-131,52,-131,16,-20,15,-160,85,c
15,-90,236,50,236,89,-57,126,200,126,236,89,200,52,273,126,191,50,367,c
15,-160,200,85,236,126,89,163,236,163,126,-20,200,-57,163,16,15,-19,297,c
-55,-231,89,15,236,89,52,163,236,126,200,-20,236,-20,200,89,121,50,437,c
191,50,273,226,457,347,236,420,347,310,310,126,384,200,273,236,156,191,508,c
121,-55,163,85,310,236,163,273,236,200,163,-20,273,52,89,52,85,15,402,c
226,156,310,261,384,384,163,420,310,273,347,236,384,310,273,236,297,121,508,c
332,332,310,297,310,384,163,420,163,126,200,236,273,200,89,89,191,-55,297,c
226,191,163,156,126,126,-20,163,16,-131,126,200,126,89,16,-94,226,-125,226,c
332,367,310,332,236,273,52,273,126,52,236,347,200,273,163,89,297,15,297,c
191,156,126,50,52,52,16,52,-20,-57,52,89,52,16,16,-131,121,-160,85,c
226,156,163,-19,16,16,-57,52,16,-20,200,126,52,126,163,16,261,-90,191,c
297,226,200,-19,16,-20,-57,52,89,52,89,52,52,52,126,-20,121,-160,15,c
121,15,16,-231,-167,-278,-204,-167,16,-94,16,16,-20,-57,89,-167,85,-266,-19,c
191,191,163,-19,-20,-167,-131,-57,16,52,163,200,52,126,200,16,121,-90,50,c
50,15,16,-195,-131,-278,-131,-241,-94,-94,-57,-57,-57,-167,-57,-167,-55,-266,-55,c
50,15,-20,-231,-94,-278,-131,-204,52,-57,16,16,-94,-57,52,-57,121,-160,121,c
191,191,52,-90,16,-131,16,-94,273,200,-57,16,-131,-57,16,-57,15,-125,85,c
50,-90,-131,-231,-94,-278,-57,-241,236,16,-167,-94,-204,-204,-94,-204,15,-195,85,c
121,15,16,-19,89,-20,16,-20,384,126,89,89,-20,52,126,52,121,-19,226,c
50,-55,-94,-90,16,-20,-20,-57,347,16,-94,-94,-94,-94,-57,-20,-90,-195,-19,c
-19,-90,-167,-125,-94,-94,-167,-57,236,16,16,16,-57,-20,52,16,15,-160,50,c
85,121,16,85,52,89,-20,126,200,200,89,89,52,52,89,89,15,15,85,c
15,-19,-57,-90,-20,-20,16,-20,89,52,16,-57,16,-131,16,-94,50,-55,121,c
191,191,163,85,163,163,163,163,236,236,200,200,126,163,200,163,261,121,297,c
226,226,200,121,126,126,200,126,273,200,16,126,52,52,52,16,156,15,121,c
156,85,163,50,16,-20,52,-20,236,-20,52,89,16,52,89,-57,261,50,191,c
261,191,310,226,200,126,200,200,384,163,163,200,126,200,163,126,297,226,297,c
121,-19,163,15,89,-57,236,52,310,52,16,-20,52,16,16,-20,191,85,226,c
261,121,273,121,163,52,273,163,347,126,200,163,126,236,200,163,332,226,332,c
261,226,273,156,126,89,236,163,273,200,89,126,89,163,89,126,156,121,121,c
156,121,163,15,-20,-57,52,16,126,52,89,126,16,126,89,16,156,50,50,c
297,367,310,297,89,200,89,163,163,236,200,273,89,310,236,236,226,226,50,c
156,191,163,156,-57,52,16,52,52,163,16,16,16,89,89,89,85,85,-90,c
156,191,200,191,16,163,16,126,126,163,200,200,126,310,273,273,226,156,121,c
261,332,236,121,89,200,126,200,126,163,163,200,126,310,163,236,85,50,85,c
121,85,52,-55,-57,16,16,-20,-20,-94,89,163,52,163,52,16,121,-19,85,c
261,261,236,261,126,273,126,163,16,52,310,384,163,347,200,163,261,226,226,c
191,191,163,226,89,236,200,52,-131,-57,89,236,89,126,52,16,85,156,85,c
226,191,126,226,126,236,236,126,-94,-57,236,384,126,273,200,126,226,297,297,c
332,332,236,367,200,420,384,310,-20,89,236,420,200,347,200,126,191,332,297,c
191,156,163,156,89,200,273,126,-131,-94,163,236,163,163,89,-57,191,191,261,c
367,332,384,297,236,347,347,273,-20,89,420,384,310,384,273,200,332,367,402,c
332,261,347,191,200,273,384,236,-20,52,200,200,200,200,89,52,191,226,261,c
226,85,310,121,200,163,310,163,-20,16,236,236,200,236,126,52,367,261,332,c
297,261,457,367,347,347,420,310,126,200,273,347,236,310,163,200,402,332,332,c
156,121,236,191,126,126,236,89,52,89,52,163,89,89,16,52,261,85,156,c
226,261,310,297,163,163,200,200,236,310,200,347,126,310,200,310,332,191,226,c
191,261,236,226,89,89,163,200,236,347,52,200,52,163,16,200,121,50,15,c
50,50,126,121,-20,-20,16,89,163,273,89,163,52,163,89,163,156,50,85,c
156,226,236,297,163,236,163,310,273,420,236,273,163,310,200,310,156,191,156,c
50,15,16,50,16,52,126,126,126,163,52,16,89,52,-20,89,15,50,50,c
156,121,89,85,126,89,163,200,236,236,236,163,200,200,163,200,156,261,226,c
226,261,126,85,200,126,273,200,236,310,163,52,200,89,89,126,-19,156,15,c
85,50,-20,-125,52,-94,126,16,163,200,126,-20,200,16,126,52,-19,85,15,c
191,191,89,85,200,126,200,200,273,347,273,163,310,200,310,236,50,261,85,c
85,50,-57,-19,52,16,163,16,126,163,89,16,163,16,126,-20,-125,85,-90,c
121,121,-57,50,52,16,126,16,126,126,200,126,163,200,236,89,50,191,15,c
191,226,16,156,89,163,163,126,163,200,163,52,163,163,126,89,-55,156,-55,c
85,50,-131,-55,-57,-20,16,-57,16,16,89,-94,89,16,52,16,-19,15,-55,c
261,261,89,121,89,126,89,89,52,126,273,89,200,200,236,236,121,156,50,c
226,156,52,-19,-20,16,52,-20,-20,-20,52,-20,126,16,89,52,15,-19,-90,c
226,121,52,-19,-94,16,-20,-20,16,-20,126,89,126,126,163,89,156,50,85,c
297,297,163,191,16,163,89,126,89,89,126,163,126,163,126,89,121,121,50,c
121,85,-20,50,-167,16,16,-57,-57,-131,-20,16,-20,-20,-20,-57,85,50,-19,c
191,261,89,226,16,200,89,163,89,89,163,200,89,163,200,200,191,297,191,c
156,191,52,121,89,163,200,163,89,126,16,16,52,16,16,126,50,226,121,c
121,50,16,85,126,126,236,163,89,52,126,52,89,126,89,200,191,261,261,c
261,261,200,297,310,347,347,310,163,89,200,163,163,273,163,273,191,367,226,c
121,85,-20,85,126,89,236,16,-20,-204,16,-20,89,16,16,52,50,191,85,c
191,156,16,191,236,126,236,52,89,-20,200,163,200,200,200,236,191,297,226,c
191,156,52,156,236,126,310,52,126,52,126,89,163,126,52,126,50,156,121,c
85,15,-57,-19,163,16,236,-57,126,-94,163,52,163,126,89,52,121,50,156,c
297,226,126,156,273,200,273,126,236,16,347,163,236,273,236,200,156,156,156,c
226,50,16,-19,126,16,163,-20,89,-167,163,-20,163,16,89,16,50,-19,50,c
261,85,163,50,236,89,200,126,200,-94,310,126,236,200,310,236,226,156,297,c
261,85,236,121,310,163,273,200,273,89,200,52,273,126,236,200,50,121,226,c
50,-160,89,-55,163,-20,163,16,200,52,52,-57,200,16,200,126,50,85,261,c
121,85,200,156,310,200,310,200,273,310,200,126,273,200,310,347,121,297,367,c
50,50,126,50,200,89,273,52,163,163,52,-20,163,-20,126,89,15,156,191,c
121,50,200,121,273,163,273,52,126,16,236,200,236,163,310,200,226,367,367,c
191,156,384,261,420,347,457,236,200,89,236,236,273,200,236,200,226,437,367,c
50,-19,273,121,310,236,457,126,126,-20,163,163,200,89,163,52,261,332,367,c
191,226,457,332,494,420,531,347,347,236,384,384,310,310,310,236,402,508,473,c
121,226,384,297,347,310,420,200,347,236,236,236,273,89,163,52,261,261,226,c
156,226,347,297,236,200,200,126,347,89,420,310,347,163,273,126,402,226,226,c
297,402,531,473,273,310,200,273,384,236,457,384,347,236,273,200,332,191,85,c
156,156,310,297,52,52,16,52,236,126,236,200,200,52,163,89,261,-19,-19,c
226,261,420,473,200,236,89,236,384,310,384,347,310,310,347,310,402,191,156,c
85,156,310,402,163,236,163,236,347,310,163,126,200,163,163,236,156,121,85,c
-19,-19,163,226,126,200,163,200,310,200,163,126,163,163,200,236,191,191,261,c
156,191,273,332,310,384,347,384,420,384,236,200,236,273,236,347,156,367,367,c
50,15,52,50,236,236,347,200,273,200,52,-20,163,52,126,126,50,297,297,c
121,121,163,191,384,384,420,347,347,273,236,163,273,273,347,273,226,543,473,c
50,156,163,261,347,457,457,420,273,236,52,52,200,126,163,163,85,473,332,c
-55,-19,16,121,236,236,347,273,163,163,16,52,89,89,126,163,156,367,367,c
121,191,236,297,420,384,457,457,273,384,163,273,163,273,236,347,226,473,402,c
50,85,163,85,310,200,347,236,89,163,-20,89,52,52,16,126,121,191,191,c
156,226,236,156,310,236,236,236,52,126,236,273,126,273,126,236,297,261,261,c
261,332,347,261,310,273,236,236,16,126,200,200,126,236,16,200,191,191,85,c
121,85,273,85,200,89,126,16,-94,16,200,89,89,89,16,89,261,85,85,c
297,226,494,261,347,273,200,163,52,163,420,200,273,273,200,310,332,261,191,c
191,85,347,85,163,126,126,16,-57,16,200,16,163,16,16,52,121,50,-19,c
191,156,273,85,163,126,89,52,-57,-20,273,126,163,126,200,89,226,226,121,c
226,297,310,191,310,310,273,236,16,126,200,126,163,126,163,126,156,297,156,c
15,50,126,50,200,200,236,89,16,52,52,-20,89,-20,89,-20,156,226,156,c
191,226,236,297,347,347,310,273,126,200,236,236,163,200,273,200,261,402,297,c
121,156,126,191,273,273,310,163,89,126,52,126,89,16,126,16,85,261,156,c
85,50,89,50,236,163,236,89,89,89,163,126,163,89,236,126,191,332,297,c
226,226,236,191,384,347,347,236,163,200,236,163,236,163,273,236,121,437,261,c
85,50,16,-55,163,163,236,89,-20,-57,89,16,126,-20,126,16,15,226,121,c
156,226,163,121,273,236,236,236,52,126,273,236,200,200,236,200,156,332,226,c
121,226,126,121,163,163,163,200,16,236,89,126,126,89,52,126,15,121,15,c
15,85,-20,50,-20,-20,-94,52,-57,200,89,163,89,89,89,126,85,15,15,c
156,332,89,261,52,163,-20,236,52,347,200,310,200,236,236,273,85,121,50,c
50,85,-57,50,-94,16,-20,52,-20,89,16,89,163,16,126,16,-19,-55,-19,c
85,121,52,121,16,89,16,126,89,163,200,236,236,163,273,200,156,121,121,c
85,156,16,85,-57,126,16,126,89,236,52,89,126,52,89,126,-90,15,-19,c
-90,-19,-204,-160,-241,-57,-94,16,52,163,-57,-20,16,16,89,89,-195,-19,15,c
15,156,-94,-19,-131,126,16,200,236,420,52,89,52,200,236,310,-195,121,85,c
-55,-19,-167,-195,-241,-20,-20,52,89,236,-94,-94,-94,-20,16,89,-301,-19,-90,c
15,50,-20,-90,-131,16,-57,89,16,163,89,52,-20,163,126,200,-19,121,85,c
121,191,126,121,-20,126,52,126,16,200,89,52,52,126,52,163,15,50,-19,c
15,-19,52,15,-57,-20,-20,-20,-57,52,52,16,16,52,16,52,121,-55,15,c
191,156,236,226,163,163,89,126,126,236,236,236,89,273,163,236,297,121,121,c
156,121,163,121,52,89,89,16,52,126,52,89,16,89,-57,16,156,-55,-19,c
156,121,126,121,16,52,-20,16,89,163,163,200,16,200,89,52,226,15,85,c
191,226,163,261,89,163,52,163,163,310,163,236,52,200,89,89,85,85,15,c
85,50,-20,50,-57,-94,-20,-20,52,126,52,89,-20,16,16,-20,50,-19,15,c
226,261,163,226,89,89,52,126,200,236,273,236,89,236,200,200,191,156,156,c
156,121,89,85,16,52,89,52,126,126,52,16,-20,52,16,52,-19,15,15,c
50,-19,16,-90,16,-20,16,-57,163,89,89,16,16,89,126,89,50,121,85,c
121,191,126,50,163,126,163,89,273,273,126,89,89,126,163,200,15,226,121,c
15,-55,-57,-125,89,-57,126,-94,163,89,-57,-94,52,-94,52,16,-19,121,121,c
121,85,89,85,273,126,236,89,273,236,163,200,163,126,273,200,156,297,332,c
121,156,126,156,273,126,310,89,273,310,16,89,126,-20,163,163,50,156,156,c
15,50,89,50,200,-20,126,-20,200,273,16,52,89,-20,200,163,121,121,191,c
121,191,273,226,347,126,200,163,310,384,126,200,163,163,310,310,156,191,156,c
-19,15,89,15,163,-57,89,16,126,89,-20,16,52,-20,89,52,15,-19,15,c
15,156,163,50,163,-20,16,89,126,126,200,163,126,163,236,236,156,121,121,c
121,226,163,85,126,16,52,89,126,236,126,89,126,126,126,236,15,15,15,c
121,50,89,-55,16,-94,-20,-57,52,89,126,89,89,89,89,163,121,-19,50,c
261,261,273,191,200,126,89,163,163,236,236,273,200,273,236,273,191,121,156,c
121,121,89,15,52,16,89,16,16,126,16,52,52,16,-20,52,50,-19,50,c
121,156,126,121,126,126,89,89,16,163,163,200,89,163,126,200,261,156,226,c
191,261,236,297,200,273,200,200,16,200,126,200,89,163,89,163,191,156,121,c
50,15,89,156,89,89,89,16,-94,16,16,89,16,52,16,52,261,85,121,c
226,191,273,367,273,347,236,236,89,236,163,236,89,236,200,273,367,332,261,c
191,191,200,226,200,236,236,126,52,126,-20,16,16,16,52,52,191,156,85,c
156,156,200,156,236,200,163,126,16,16,163,126,126,89,200,126,297,261,226,c
226,261,273,332,384,384,310,273,89,200,200,200,236,163,200,236,261,297,226,c
50,50,89,191,310,200,273,126,52,52,52,89,163,16,89,126,261,156,156,c
191,261,273,367,457,347,310,310,200,273,236,310,236,273,273,347,402,261,261,c
156,191,236,332,310,273,236,236,200,273,52,163,163,126,126,200,261,15,50,c
121,85,200,261,200,126,52,89,200,200,163,200,163,126,200,163,437,50,121,c
261,332,384,473,310,236,163,236,273,310,273,273,200,236,200,200,367,121,121,c
156,156,163,191,126,16,89,16,163,89,126,52,89,16,16,52,226,-19,85,c
261,191,236,261,200,163,126,200,236,200,273,200,200,310,236,273,297,156,261,c
191,156,163,156,163,200,200,236,200,200,89,89,163,236,126,163,85,85,156,c
15,-55,-20,-19,89,89,126,163,163,126,89,89,126,236,163,163,85,85,226,c
156,121,126,121,236,310,273,384,273,347,200,200,200,420,236,347,15,226,261,c
50,-55,-20,-90,16,163,163,200,126,163,16,-20,89,200,52,89,-125,50,85,c
85,50,52,-19,89,236,163,236,163,126,236,126,200,347,273,236,50,226,191,c
85,85,89,50,163,273,236,310,200,236,163,52,236,236,200,236,-55,191,85,c
15,-90,-57,-160,52,52,89,126,163,89,126,-57,126,89,126,163,-19,50,50,c
191,156,89,50,126,163,89,236,200,236,200,163,163,236,236,310,15,121,50,c
15,15,-57,-125,-20,-20,-57,52,-20,52,16,-57,52,16,52,89,-160,-90,-160,c
15,15,-20,-160,16,-20,-94,52,16,52,163,52,126,163,200,236,-55,15,-19,c
121,121,16,-90,89,52,16,126,89,200,126,16,163,163,126,236,-195,50,-19,c
-19,-125,-167,-266,-20,-167,-20,-20,52,16,16,-20,89,16,52,52,-195,-55,50,c
85,-19,-57,-19,163,52,126,163,200,200,126,200,163,236,236,236,-19,121,261,c
-55,-90,-167,-55,52,-20,126,52,89,126,-94,16,52,16,16,89,-90,-19,156,c
-90,-55,-167,15,16,-20,89,16,52,16,16,89,52,126,89,89,85,85,367,c
121,191,16,191,163,163,273,200,89,126,89,200,126,163,126,126,50,226,402,c
50,15,-131,-90,52,-20,236,52,16,-20,-20,16,16,-20,16,-57,-55,156,332,c
121,156,-20,15,200,126,310,236,236,273,163,163,126,163,200,200,50,332,508,c
50,85,-94,-19,126,126,384,236,310,273,16,-20,52,52,16,52,-160,226,367,c
-19,-19,-131,-90,89,89,310,163,347,89,52,52,16,126,89,89,-19,226,437,c
156,191,52,156,200,273,347,310,420,310,200,200,89,200,126,236,50,261,367,c
50,15,-57,50,52,52,163,89,273,163,52,52,-20,-20,-57,-20,121,15,156,c
226,191,163,332,163,200,163,163,273,200,273,347,89,200,163,89,402,191,297,c
297,226,200,402,163,200,200,163,200,163,163,310,126,126,89,16,297,85,156,c
191,121,126,297,52,52,52,52,126,89,163,273,126,89,126,-20,332,50,156,c
297,402,273,543,163,273,89,273,236,310,236,420,163,273,236,200,332,191,191,c
121,332,89,297,-20,89,16,163,52,163,16,200,52,89,52,52,156,-19,50,c
191,367,163,297,89,126,16,236,89,163,200,384,163,273,273,200,261,156,226,c
261,402,200,332,126,200,126,273,126,236,126,273,163,200,163,126,156,121,121,c
156,156,52,156,52,52,89,126,52,52,89,126,126,89,126,52,261,156,191,c
297,297,310,402,310,347,310,384,200,236,273,310,273,310,273,273,437,402,367,c
191,156,273,261,273,273,384,273,126,126,126,163,236,89,126,89,332,297,261,c
191,191,347,332,347,310,347,273,126,126,310,310,310,236,273,200,473,402,367,c
226,367,384,437,384,420,420,347,163,236,236,347,310,273,273,200,261,437,261,c
50,121,163,156,236,236,310,163,52,52,89,200,200,126,163,52,191,297,226,c
156,226,273,261,384,420,347,347,163,200,273,310,347,310,310,273,297,437,332,c
85,121,163,85,273,236,310,236,52,89,89,52,236,89,126,89,85,226,156,c
50,15,126,-19,163,126,163,163,52,89,163,89,236,163,200,163,121,261,261,c
121,156,200,156,200,273,236,347,163,273,163,163,273,273,236,310,50,261,261,c
-55,-90,-20,-90,-20,89,126,200,89,89,16,16,163,89,126,126,-55,121,226,c
85,121,126,50,126,236,163,347,200,200,236,200,273,310,310,310,156,261,367,c
156,156,126,15,89,236,200,310,126,126,89,52,200,163,163,126,15,121,191,c
121,15,16,-55,52,200,126,236,89,16,126,52,163,236,163,126,121,191,297,c
226,191,163,156,236,457,347,457,236,273,200,163,236,384,236,310,156,332,402,c
85,15,-57,-90,89,273,236,310,126,163,-57,-20,89,163,16,89,-19,191,226,c
121,121,52,-19,200,347,236,420,236,310,126,200,126,347,163,310,156,332,367,c
191,156,126,15,273,347,310,420,273,310,52,126,126,273,52,200,121,226,261,c
191,-19,163,-90,236,163,236,236,236,126,126,89,163,200,89,126,297,121,332,c
367,226,384,156,384,273,310,347,347,273,310,273,273,310,200,310,402,226,297,c
226,156,200,15,200,16,126,89,163,126,89,89,126,52,-20,126,261,-19,50,c
226,226,236,156,236,89,89,89,163,200,236,273,163,273,126,273,437,85,85,c
261,297,347,226,273,126,126,89,163,200,200,200,163,273,16,200,297,15,-90,c
156,85,200,-19,89,-131,-57,-131,52,52,163,52,89,126,16,126,226,-90,-160,c
261,261,273,85,163,16,-57,16,89,273,310,163,163,273,163,347,191,50,-160,c
156,121,89,-19,-57,-94,-167,-94,-20,126,89,-20,16,16,-57,89,15,-125,-336,c
156,50,89,50,-94,-20,-204,-94,16,52,236,89,52,126,89,126,226,15,-160,c
226,156,163,226,-20,126,-57,52,126,163,200,126,89,89,89,126,121,50,-125,c
50,15,-20,15,-167,-94,-131,-94,52,52,16,52,-20,-57,52,-20,50,-19,-90,c
121,226,52,191,-20,163,16,89,126,236,126,273,16,236,236,200,121,191,121,c
85,191,-94,85,-94,163,89,89,16,126,-57,126,-57,52,89,16,-90,85,50,c
85,85,-94,-55,-57,126,52,52,52,89,52,126,16,89,163,52,50,156,191,c
261,261,163,85,200,347,200,236,200,310,163,163,126,200,200,200,85,261,226,c
121,50,89,-125,126,163,126,89,126,126,52,16,126,89,52,52,15,85,85,c
226,191,236,85,236,310,126,200,200,163,236,236,273,310,273,236,191,226,156,c
261,191,200,121,200,236,126,126,89,89,89,126,236,126,126,126,50,85,-55,c
121,50,89,50,126,89,16,16,52,16,89,163,163,126,163,89,121,50,15,c
191,261,200,226,273,236,126,200,236,236,163,273,236,310,273,236,85,156,50,c
15,121,16,50,89,16,52,-20,163,-20,16,89,163,52,89,16,-55,15,-90,c
121,191,126,191,126,126,16,52,200,89,236,200,236,163,200,163,156,191,15,c
156,226,200,297,126,163,52,52,126,200,126,163,163,16,16,89,15,156,-160,c
50,85,89,191,-20,16,-57,-131,-20,-57,126,163,89,-20,16,16,85,121,-125,c
191,297,273,402,163,200,89,52,89,16,347,310,236,163,163,163,156,261,50,c
85,121,163,191,89,52,52,-57,-20,-57,163,52,200,-94,-20,-20,15,85,-55,c
121,156,236,226,163,126,52,16,16,126,310,200,236,52,89,126,156,191,121,c
191,297,273,367,200,200,89,126,89,200,236,200,200,16,16,89,50,156,50,c
121,121,163,226,89,52,16,-20,126,89,200,89,126,-94,16,-57,121,50,85,c
332,332,384,473,273,236,126,200,347,420,347,310,236,126,236,200,332,261,297,c
297,297,347,402,200,163,163,163,236,310,163,236,126,-20,52,52,261,121,156,c
332,332,384,437,236,163,163,200,273,200,347,384,200,126,200,163,508,226,367,c
402,473,531,578,347,347,310,347,347,347,347,384,273,163,236,236,437,297,332,c
226,226,347,367,163,163,200,163,236,126,163,200,163,16,126,89,402,191,261,c
297,367,494,508,347,347,310,347,310,273,310,347,273,236,310,310,508,402,402,c
226,332,347,367,310,273,384,310,236,273,126,163,200,52,163,200,297,191,261,c
156,226,273,261,273,163,273,236,200,236,200,163,200,126,236,273,367,226,367,c
297,367,384,367,384,310,384,347,236,384,236,200,236,236,273,384,332,297,297,c
156,85,200,121,200,16,236,52,126,163,52,16,126,52,126,163,191,85,121,c
191,226,236,191,236,89,200,163,200,236,236,163,163,273,310,310,226,191,226,c
156,226,126,121,126,89,163,89,126,126,126,16,126,89,163,163,-19,50,15,c
85,50,16,-19,16,-20,52,-20,52,-20,163,-20,126,89,200,89,85,15,50,c
261,261,200,191,163,163,89,89,89,126,273,126,200,236,236,200,121,85,15,c
156,121,16,-19,-20,-20,-20,-131,-94,-57,89,-57,16,16,16,-57,-19,-125,-160,c
261,191,126,15,52,52,-20,-57,-20,16,273,89,52,200,163,89,121,15,15,c
297,191,163,15,52,89,52,16,16,89,163,-20,52,126,52,89,-19,-55,-55,c
156,-90,-20,-231,-57,-57,-20,-94,16,-20,52,-94,16,16,52,89,-55,-55,50,c
191,121,126,-19,163,200,163,200,200,236,200,89,163,200,163,273,15,226,261,c
15,-19,52,-90,126,163,236,126,163,126,16,-57,126,16,16,52,-90,191,226,c
15,15,126,-19,273,236,273,236,200,126,163,126,236,200,273,200,85,402,402,c
50,121,273,121,384,347,384,347,273,273,126,163,310,200,236,273,15,367,297,c
-90,-90,163,15,310,200,310,236,200,163,52,126,236,126,200,163,85,261,332,c
50,50,347,297,457,457,420,494,347,310,273,384,310,420,347,384,261,473,508,c
-55,-90,236,226,347,347,420,457,273,273,52,236,200,236,163,273,121,261,332,c
-125,-125,200,156,273,273,310,384,310,273,126,310,200,347,310,384,261,261,437,c
15,121,310,297,347,347,347,494,347,347,163,310,236,384,310,384,226,261,297,c
-55,-90,163,85,126,89,163,310,163,126,89,89,163,163,163,200,191,50,156,c
85,15,310,191,200,236,126,420,236,236,273,236,236,384,273,420,261,156,226,c
50,-19,200,85,52,126,89,273,126,200,52,126,89,200,52,273,85,-90,-19,c
15,-19,89,15,-57,16,-20,163,126,163,89,163,16,200,89,200,156,-55,50,c
121,191,200,226,52,236,89,310,273,310,126,236,89,310,163,236,121,121,85,c
15,-19,16,-19,-94,52,16,89,126,89,-20,16,16,52,52,-57,15,-19,-19,c
226,226,126,85,16,126,52,163,126,126,236,200,126,236,236,89,226,121,121,c
402,402,163,121,16,163,89,126,89,-20,126,126,126,89,89,-20,85,15,-55,c
367,261,16,15,-20,16,-20,-20,52,-131,126,126,126,52,126,-57,121,15,-19,c
437,402,163,191,126,200,126,163,200,52,200,236,236,236,236,126,121,156,50,c
226,191,-20,-55,-20,16,52,16,89,-20,16,16,126,16,52,-20,15,-19,-55,c
226,191,126,50,52,89,89,89,200,89,200,163,163,236,200,163,191,156,85,c
226,226,163,156,89,89,126,89,200,89,126,126,163,163,126,126,50,85,-90,c
85,15,52,-19,-57,-94,-20,-94,52,-94,126,89,126,89,126,16,85,-19,-55,c
261,191,273,156,163,89,89,126,126,126,347,236,236,236,236,163,226,85,50,c
191,121,163,15,16,-57,16,16,16,16,89,16,126,16,-20,-57,50,-90,-90,c
191,156,163,50,16,-20,-57,16,89,-57,163,89,126,163,89,52,121,15,50,c
156,191,200,121,52,89,16,89,236,89,52,16,126,163,126,89,-19,-19,15,c
-19,-125,-20,-125,-94,-131,-57,-131,273,52,-94,-94,52,-20,52,-20,-55,-125,50,c
121,50,89,50,16,52,52,52,420,310,89,126,89,200,236,200,-19,50,156,c
85,15,-20,15,-94,16,16,-20,273,163,-94,16,-20,16,-20,-20,-160,-55,-19,c
50,50,-20,50,-57,16,-20,-20,200,89,52,126,16,89,89,16,50,85,121,c
156,261,163,261,163,236,163,200,273,347,126,163,89,126,126,126,121,191,156,c
-19,50,-20,85,52,89,89,89,200,236,-57,-20,16,-57,16,16,85,121,121,c
85,156,126,332,200,273,200,273,310,347,200,200,126,200,273,200,261,367,261,c
85,121,163,332,236,310,273,236,273,236,126,126,163,89,163,52,191,261,191,c
15,50,200,261,273,236,236,200,200,126,236,236,200,200,236,126,332,226,332,c
156,367,384,473,420,457,310,457,236,347,310,457,273,384,236,273,402,297,367,c
85,191,236,367,310,347,236,310,89,126,200,310,236,236,89,52,367,191,297,c
226,297,457,613,494,531,347,494,200,200,457,531,384,457,273,236,578,473,508,c
261,367,494,684,531,604,420,531,163,200,347,420,347,347,126,163,402,402,367,c
156,261,347,508,384,457,310,457,89,163,273,384,273,310,163,163,367,402,437,c
332,437,457,613,531,678,457,678,273,310,457,494,457,531,384,384,402,508,543,c
297,191,310,367,384,457,457,494,200,200,273,236,384,347,236,163,261,297,437,c
437,226,384,367,384,420,347,494,310,384,384,310,384,494,347,347,402,332,473,c
613,332,384,402,273,384,310,457,310,457,200,236,273,384,200,310,226,226,191,c
508,261,163,156,16,126,52,200,52,89,89,163,126,236,126,126,156,85,50,c
613,508,200,297,89,273,52,273,89,163,200,310,200,384,200,273,191,156,50,c
473,297,16,156,-57,89,-20,52,16,200,52,126,89,163,-20,126,50,-55,-125,c
437,226,52,191,16,89,-20,89,16,236,236,236,126,347,126,236,261,50,15,c
613,402,200,332,52,236,16,163,-20,200,236,273,126,310,52,163,156,15,-90,c
613,261,52,121,-131,16,-167,-57,-167,-94,163,89,52,89,-20,-57,121,-55,-55,c
719,473,236,332,89,200,16,163,16,126,420,273,200,310,236,200,261,226,191,c
613,402,200,261,89,163,163,200,16,89,236,126,200,126,89,52,121,156,156,c
508,261,236,261,163,273,200,273,-20,126,310,200,236,273,236,163,297,332,367,c
543,367,347,473,310,494,384,531,89,310,273,273,273,347,273,310,297,473,437,c
332,191,163,297,200,310,310,384,16,163,89,126,126,126,126,126,261,332,367,c
437,402,347,508,384,420,384,494,163,310,273,273,236,347,310,347,437,543,508,c
402,332,310,437,384,384,420,420,126,273,126,89,200,163,163,236,261,402,332,c
261,121,163,261,310,236,310,310,126,126,200,89,200,163,200,236,297,402,367,c
332,297,273,473,420,384,384,420,236,347,273,200,273,310,236,347,261,437,297,c
156,121,126,261,200,126,236,126,163,236,89,52,163,52,16,126,156,156,50,c
261,226,310,332,273,163,163,126,273,310,310,273,236,273,273,273,261,226,85,c
226,261,310,261,163,89,52,-20,273,163,163,126,200,126,163,126,50,15,-160,c
85,85,89,50,-94,-131,-167,-241,163,16,52,16,89,16,126,52,50,-160,-266,c
121,191,126,191,-57,52,-167,-57,273,236,52,89,89,200,200,236,-19,-55,-231,c
-55,-55,-131,-19,-278,-94,-241,-167,126,16,-131,-167,-57,16,-20,16,-195,-266,-336,c
-55,-125,-94,-55,-241,-57,-241,-131,200,52,52,-57,-20,163,126,200,-19,-160,-125,c
-19,-55,-57,15,-167,16,-94,-20,200,200,-20,-57,-20,89,16,200,-160,-160,-160,c
-160,-125,-204,-125,-241,-94,-167,-167,52,52,-94,-94,-57,-20,-57,52,-125,-160,-125,c
-19,121,16,156,16,163,16,126,163,236,89,163,52,236,126,236,-19,121,85,c
-55,-19,-94,15,-20,89,89,52,126,163,-94,-20,-20,52,-20,89,-160,-19,-19,c
-55,-55,-94,-19,52,89,89,126,163,163,52,89,16,200,126,236,15,156,156,c
85,156,52,191,200,273,236,273,236,200,89,126,89,236,126,273,15,226,121,c
-90,-19,-20,15,126,126,126,16,89,-20,16,-20,52,89,16,126,50,121,85,c
15,121,200,226,273,236,200,126,200,126,236,200,163,347,236,384,191,261,191,c
15,85,126,121,200,89,200,16,52,52,89,52,89,126,89,200,15,85,-19,c
-19,50,52,15,163,-20,89,-57,16,52,163,126,126,126,200,200,85,121,50,c
121,226,200,191,273,126,163,89,126,126,200,200,200,126,236,200,85,121,15,c
50,50,16,-55,52,-94,16,-167,-20,-167,16,-20,89,-94,89,-94,15,-90,-125,c
297,261,163,50,126,52,16,-20,89,-20,273,163,163,126,273,126,191,50,50,c
297,261,163,85,89,52,89,-57,126,-20,126,16,163,-20,126,16,50,-19,-19,c
191,50,52,-19,16,-57,16,-167,52,-167,163,-20,126,-57,126,-20,121,-19,85,c
226,156,163,156,126,126,126,16,163,89,236,52,163,52,200,126,121,85,156,c
15,-55,-20,-55,-20,-20,52,-94,89,16,52,-131,16,-167,52,-20,15,-55,50,c
85,50,89,85,126,126,126,52,163,52,200,89,89,52,236,126,156,156,226,c
85,156,89,85,200,163,236,89,163,89,89,16,89,-57,126,89,-19,121,156,c
-19,15,-20,-125,163,-20,163,-57,52,-57,52,-20,89,-131,126,52,-19,121,226,c
121,156,163,121,384,163,310,126,126,163,236,126,200,89,273,236,85,297,297,c
-19,-55,52,-19,236,-20,200,-20,52,89,89,-20,126,-94,126,89,-55,50,121,c
15,-19,89,15,236,16,89,16,200,163,236,126,200,126,236,273,121,85,226,c
121,121,163,85,236,89,163,126,310,310,236,126,200,126,163,273,85,50,156,c
85,15,89,-90,89,-94,16,-57,273,163,200,16,163,-20,126,126,121,-55,156,c
226,191,273,85,236,52,126,163,457,457,347,200,236,163,273,347,156,121,261,c
50,15,89,-55,89,-57,126,89,384,420,52,16,126,-20,52,163,-55,-19,121,c
-55,-55,16,-90,52,-57,52,52,310,273,89,89,52,52,163,163,50,85,191,c
50,50,89,15,89,89,126,126,310,347,-20,89,52,89,126,200,-19,50,85,c
-125,-160,-94,-195,-131,-94,16,-57,163,126,-131,-20,-94,-57,-20,16,-55,-125,15,c
50,-19,52,-19,16,89,89,126,310,310,89,200,52,126,163,236,85,15,226,c
50,-125,-20,-125,-20,16,89,52,347,236,-20,16,16,-94,16,89,-90,-160,85,c
-19,-231,-57,-231,-57,-20,-20,-20,236,126,89,16,52,-57,52,126,15,-125,156,c
121,50,89,-19,126,126,126,126,273,200,163,163,126,16,52,200,15,15,156,c
15,-55,-20,-195,52,-57,89,-57,126,-20,52,52,89,-241,-57,-57,-55,-125,15,c
121,50,89,-19,163,16,89,52,200,126,236,310,200,-20,163,163,50,50,85,c
85,50,89,-19,163,-57,52,16,126,163,126,236,163,-204,52,52,-90,-90,-125,c
121,-55,52,-160,126,-204,-20,-167,16,-57,200,236,126,-241,89,-20,85,-90,-55,c
402,226,310,50,273,16,126,-20,126,52,310,310,126,-131,126,89,156,15,15,c
261,50,126,-125,52,-167,16,-204,52,-57,52,52,-94,-351,-94,-94,50,-160,-90,c
297,121,163,15,126,-57,16,-94,163,52,200,273,-57,-131,52,52,226,50,85,c
332,191,273,156,200,16,200,-20,163,89,163,273,-131,-204,-57,-20,156,85,50,c
226,50,236,15,126,-57,163,-131,52,-57,126,236,-241,-278,-94,-131,226,85,121,c
367,261,384,261,273,163,273,89,126,126,236,457,-204,-94,52,52,332,261,191,c
261,191,200,156,126,16,236,-94,-20,-20,-20,310,-315,-278,-94,-167,191,50,15,c
297,261,236,226,126,52,163,-57,-20,16,126,420,-278,-94,52,16,402,121,191,c
332,402,273,367,126,200,200,89,16,126,52,347,-278,-94,-20,52,297,50,85,c
121,121,89,121,-94,-20,-20,-94,-131,-94,-20,163,-351,-241,-94,-57,226,-160,-19,c
226,261,200,261,-20,89,-57,52,-57,52,126,273,-278,16,89,126,261,-55,15,c
121,156,89,85,-94,-57,-94,-57,-94,126,-57,52,-315,-241,-94,-57,50,-195,-125,c
85,50,126,85,16,-57,-57,-94,-20,126,52,89,-204,-131,52,52,226,15,85,c
191,191,347,261,273,89,163,52,89,89,126,126,-57,-20,126,89,261,191,121,c
85,-19,273,85,310,-57,200,-94,-20,-204,52,16,-20,-167,52,-131,297,121,121,c
191,156,494,297,568,200,384,126,89,52,310,273,126,89,273,52,437,367,402,c
121,121,420,191,568,200,457,163,89,89,163,89,126,-20,163,-20,261,297,332,c
15,-55,310,50,457,163,384,163,52,-57,200,89,126,52,273,16,297,332,367,c
50,121,347,191,494,273,384,310,16,52,236,200,89,200,236,89,191,297,191,c
-125,-19,52,-55,200,-20,126,-20,-131,-57,-20,-20,-131,-20,16,-94,15,50,-19,c
-125,50,126,121,273,89,163,89,16,89,89,126,-57,236,163,126,226,261,121,c
-125,50,200,156,236,126,236,89,52,126,-57,89,-94,126,52,52,156,121,15,c
-125,-55,200,50,163,16,126,-57,52,-94,52,126,-94,126,126,-94,332,-19,85,c
121,156,384,261,236,163,163,52,163,-20,200,347,-20,310,200,16,402,-55,85,c
15,-19,126,50,-20,-57,-20,-167,16,-167,-57,126,-167,52,16,-131,226,-336,-125,c
15,-19,126,85,-20,-20,-94,-131,52,-131,89,200,-94,236,163,52,332,-195,15,c
50,50,126,85,-20,52,-57,-57,-20,-204,16,89,-94,163,52,-94,121,-195,-125,c
-55,-55,-20,-125,-131,-94,-167,-241,-131,-425,-20,16,-131,89,-20,-241,121,-231,-125,c
85,156,163,15,126,126,16,-20,126,-131,126,163,-20,273,163,-57,156,-19,15,c
-55,-90,52,-195,52,16,52,-94,126,-131,-20,-94,-57,16,16,-241,-55,-90,-55,c
-55,-125,89,-195,163,52,126,16,236,16,126,-20,89,163,200,-57,85,156,261,c
85,85,163,-19,310,200,384,163,384,126,163,16,200,163,200,16,15,297,332,c
-55,-55,16,-160,236,52,384,16,273,-57,89,-94,126,16,126,-131,85,297,332,c
15,121,236,121,457,310,494,236,384,126,273,126,236,273,310,89,226,508,543,c
-55,-55,163,85,384,236,531,200,347,52,89,16,126,126,200,-20,85,367,437,c
-55,-125,126,15,384,163,494,163,384,89,163,163,163,236,310,52,191,437,578,c
50,156,273,156,494,310,568,273,494,236,236,236,236,310,347,163,85,508,473,c
-90,15,126,-55,310,52,420,16,310,-57,126,16,200,89,200,16,50,332,367,c
50,85,273,121,420,200,457,163,384,126,347,163,310,347,347,273,261,437,473,c
50,-19,236,121,310,163,457,126,310,163,89,16,163,200,163,163,156,261,297,c
-19,-90,89,-19,126,16,273,16,200,-20,89,16,89,236,200,163,191,156,226,c
50,85,163,121,89,126,200,163,236,126,89,89,89,347,273,310,156,191,121,c
-90,-125,-20,-125,-131,-94,16,-20,89,52,-94,-167,-20,89,89,89,15,-19,-19,c
-55,-19,89,15,16,52,52,89,126,126,126,-20,52,310,273,273,121,156,121,c
-19,15,89,15,52,89,126,89,52,126,16,-167,52,163,163,200,-19,85,-19,c
-125,-160,-20,-90,-20,-20,52,-20,16,16,16,-167,89,126,236,200,85,121,50,c
50,50,126,191,163,236,200,236,126,200,126,16,200,347,347,347,121,297,191,c
-90,-55,-57,50,16,126,163,126,-20,-20,-57,-131,89,163,126,89,-55,121,50,c
-55,50,-20,85,89,200,126,236,16,89,89,89,163,347,310,273,85,226,191,c
15,191,52,156,126,310,200,384,89,273,16,89,200,310,236,273,-19,156,121,c
-90,-19,-20,15,89,236,89,310,52,52,-20,16,163,273,200,163,50,121,156,c
50,226,163,261,236,457,163,568,126,200,126,236,273,568,310,384,121,332,226,c
-55,121,52,121,163,310,163,420,52,163,-20,16,200,347,163,236,15,191,85,c
-90,50,126,191,236,310,163,384,89,273,126,163,273,494,347,384,226,332,261,c
-19,226,200,437,347,494,273,494,89,310,89,273,273,531,310,347,156,367,156,c
-195,50,-20,297,126,273,126,273,-57,89,-57,163,126,347,163,200,121,191,50,c
-55,261,126,437,236,347,163,384,126,310,163,310,273,568,347,457,226,332,121,c
-125,156,52,226,89,200,126,236,126,273,-57,89,236,310,163,310,85,85,-90,c
-195,50,16,191,-20,126,-57,126,52,236,-20,163,200,384,163,347,261,15,-55,c
-90,226,200,473,16,273,-57,236,89,384,16,236,163,457,89,347,297,-55,-160,c
-160,85,52,297,-241,16,-241,-57,-94,126,-131,89,16,200,-94,89,226,-301,-301,c
50,297,200,402,-204,89,-278,52,-20,163,89,273,89,347,52,236,367,-195,-195,c
121,297,163,297,-241,52,-278,16,-131,16,-20,89,52,163,-131,52,191,-301,-301,c
50,121,89,156,-241,16,-278,-20,-131,-57,89,52,163,200,-20,89,261,-231,-125,c
156,226,273,332,16,236,-57,200,89,236,236,163,384,347,163,273,226,-55,15,c
-19,50,89,85,-57,89,-57,89,52,89,52,-20,384,126,52,89,50,-160,-19,c
50,156,89,191,16,236,-57,236,126,163,200,126,457,310,273,236,121,85,191,c
85,191,16,191,52,273,89,310,163,273,89,-20,457,200,200,163,-55,121,156,c
-19,15,-57,50,52,163,163,200,163,163,89,-94,457,163,236,126,50,226,367,c
121,226,236,297,420,457,494,494,347,384,273,89,604,384,347,310,261,578,613,c
50,50,273,191,457,347,604,384,310,236,126,-94,494,200,163,89,226,473,578,c
121,85,420,226,604,384,678,420,384,310,347,89,568,347,347,236,402,649,684,c
226,226,531,332,678,494,752,494,457,420,310,52,641,347,310,236,297,649,543,c
85,50,347,156,494,310,604,273,384,236,236,-20,568,236,273,52,261,508,508,c
156,226,457,402,568,420,604,457,457,420,347,200,604,457,347,273,332,578,473,c
50,156,273,261,347,236,457,310,310,347,126,16,420,236,126,89,121,261,191,c
121,191,310,191,273,163,236,273,236,347,273,126,384,310,200,163,297,226,261,c
261,367,457,297,273,273,236,384,273,531,273,163,347,347,126,236,261,156,156,c
85,121,310,121,16,89,16,163,126,310,163,52,236,236,-57,89,226,-90,85,c
226,226,420,297,126,273,52,310,200,347,384,273,347,457,89,273,367,50,226,c
191,156,347,156,89,163,52,200,126,200,236,89,347,200,-57,52,156,-55,85,c
156,121,236,15,89,89,52,126,126,126,310,126,347,200,52,52,226,15,226,c
332,367,310,156,200,273,200,310,236,310,347,163,420,236,126,163,156,191,261,c
191,226,126,-90,89,52,163,89,89,89,163,-20,310,16,16,16,50,121,226,c
261,332,236,50,273,200,310,273,200,236,310,200,420,200,236,200,191,402,508,c
261,297,273,50,420,236,531,347,236,236,200,52,420,89,126,89,121,402,473,c
156,121,200,-90,457,163,531,273,236,163,236,16,420,126,236,89,191,508,543,c
261,297,347,121,641,384,678,494,310,347,347,126,531,273,347,273,191,684,578,c
85,121,200,-55,494,200,604,310,163,200,126,-20,457,16,163,89,85,473,437,c
156,226,273,85,531,236,531,347,200,236,310,163,531,200,384,273,297,578,508,c
226,332,273,191,420,236,494,310,163,200,163,126,420,126,236,163,191,437,261,c
121,156,126,85,163,16,236,163,16,52,89,52,310,52,163,52,156,261,226,c
297,332,236,297,200,200,273,310,89,273,236,200,384,273,273,236,156,297,226,c
156,226,16,85,-57,-20,89,89,-57,126,16,-20,236,16,89,16,-55,-55,-55,c
156,191,-20,50,-167,-20,-131,89,-20,163,200,89,273,163,236,163,15,-90,-19,c
226,226,-20,121,-204,52,-167,200,-20,236,163,52,236,126,163,200,-90,-195,-160,c
50,50,-167,15,-388,-57,-315,16,-167,16,89,-20,126,16,52,52,-19,-266,-195,c
191,261,89,297,-131,200,-131,200,-57,89,273,163,200,273,200,200,191,-19,15,c
121,156,16,156,-131,89,-57,89,-131,-94,89,16,126,52,52,-20,15,-90,-90,c
121,121,52,121,-57,126,-57,89,-131,-94,200,200,200,126,163,16,156,121,50,c
226,332,163,332,126,310,89,200,-94,89,200,273,273,163,200,52,121,191,-19,c
85,156,52,121,52,126,52,-20,-167,-94,126,126,163,16,89,-57,85,85,-55,c
226,261,200,261,236,273,163,126,16,16,310,273,310,236,310,163,191,297,156,c
191,156,89,156,236,163,236,126,-20,-20,126,126,273,89,126,52,15,191,85,c
121,121,52,85,273,89,236,126,52,-57,200,200,347,163,273,89,191,226,297,c
261,332,236,332,420,273,384,347,200,163,273,273,420,236,347,273,261,332,297,c
156,85,89,121,273,52,273,163,126,89,52,52,273,52,126,89,191,121,191,c
191,156,163,226,310,163,273,273,273,236,163,273,310,310,310,310,226,226,332,c
50,121,52,121,163,126,200,236,347,310,-20,126,163,236,126,273,-55,15,121,c
-125,-55,-167,-90,-131,-94,-94,89,384,310,-20,89,16,200,126,273,-90,-125,50,c
15,191,-57,50,-167,52,-94,236,568,494,89,236,89,347,236,420,-55,-125,50,c
-19,15,-131,-55,-315,-131,-167,-20,457,236,-20,52,52,89,89,200,-55,-336,-125,c
85,50,89,85,-167,16,-131,16,420,200,236,236,200,236,310,347,191,-125,-19,c
121,156,163,85,-57,126,-57,16,236,126,163,126,163,89,163,236,15,-125,-195,c
-19,-19,-20,-125,-167,-20,-167,-131,52,-94,126,16,126,-20,126,89,15,-55,-90,c
85,156,163,121,126,273,52,163,200,126,310,200,310,200,236,310,121,297,121,c
-19,15,52,15,163,200,236,89,163,89,126,89,273,52,89,126,-19,261,156,c
15,50,89,15,310,236,310,200,236,163,273,236,384,236,236,273,121,473,367,c
121,226,163,85,384,347,457,347,273,310,236,200,384,200,163,310,15,473,332,c
-19,50,16,-90,236,200,347,236,163,126,126,52,236,89,126,236,15,367,332,c
85,156,126,121,347,420,457,494,347,310,273,310,310,384,347,494,121,543,508,c
85,121,16,-19,236,273,420,384,273,236,89,163,200,200,200,310,-55,297,297,c
226,261,16,-55,163,126,236,273,200,126,200,273,236,273,273,347,85,297,332,c
402,578,163,191,200,236,273,384,163,200,236,347,273,310,273,347,50,332,226,c
261,367,-57,15,-20,16,126,126,16,52,52,163,126,89,89,163,-19,121,121,c
297,473,89,191,52,126,89,236,89,200,236,310,200,273,236,384,85,226,156,c
191,332,16,85,-94,52,16,163,16,163,52,126,89,126,52,236,-125,15,-125,c
50,121,-57,-55,-204,-57,-204,16,16,89,89,163,16,163,89,236,-19,-19,-125,c
191,297,126,156,-94,89,-131,126,89,236,163,273,89,236,163,310,50,15,-125,c
85,121,16,15,-167,-94,-167,-94,-57,-57,16,126,52,16,-20,16,50,-125,-195,c
226,226,200,226,16,126,-20,52,89,89,236,310,200,236,200,236,297,121,50,c
226,261,236,367,52,200,89,126,163,236,126,200,163,89,89,163,226,50,-19,c
121,121,163,297,52,89,52,52,163,126,163,200,126,89,126,126,332,85,121,c
297,332,384,508,273,310,236,273,310,236,273,347,236,236,236,236,367,332,226,c
226,191,200,297,163,163,236,126,200,89,52,126,126,-20,52,-20,191,191,156,c
261,261,163,332,200,236,236,273,310,163,200,273,163,126,200,163,261,367,367,c
261,367,126,332,163,310,310,384,347,310,52,163,126,89,126,163,50,297,261,c
85,121,-94,85,16,163,163,273,200,126,16,89,52,16,126,126,-19,191,226,c
121,261,16,261,89,347,200,457,273,310,126,236,126,200,273,347,15,367,297,c
-19,85,-94,156,-20,163,163,310,163,236,-57,52,52,16,89,200,-125,191,156,c
-90,50,-57,191,16,163,89,347,236,310,89,163,89,200,236,347,85,297,226,c
-19,226,52,297,89,236,126,420,273,420,52,200,89,200,200,310,15,226,50,c
-160,50,-131,85,-94,16,-57,163,89,273,-94,126,-20,89,52,163,-55,15,-55,c
-19,261,16,226,16,200,-20,273,163,347,52,347,52,347,236,347,15,121,-55,c
-19,226,-94,156,-94,126,-94,126,52,163,-94,200,-57,163,16,163,-125,-125,-336,c
-19,121,-94,121,-131,52,-241,16,-20,52,52,310,-20,236,89,200,15,-125,-266,c
85,226,89,297,16,236,-131,163,16,163,163,310,52,310,52,273,-19,-55,-266,c
85,85,-57,50,-94,52,-241,-57,-131,16,89,126,16,89,-57,89,-90,-160,-301,c
261,332,89,156,89,200,-94,89,-20,126,310,310,126,273,163,273,50,121,-55,c
226,261,52,85,163,200,52,126,-20,89,163,163,89,52,16,126,-90,121,-19,c
121,156,16,15,200,163,126,89,-20,52,236,163,89,89,52,126,85,261,297,c
261,332,200,191,420,420,384,347,89,236,310,273,200,236,126,236,121,437,437,c
156,121,52,-19,236,236,347,163,16,52,89,52,89,16,-20,52,50,297,332,c
226,121,126,85,273,310,310,273,126,200,310,126,200,200,200,273,191,473,473,c
191,121,126,85,273,273,347,310,163,273,163,16,200,126,126,236,15,367,332,c
50,-55,16,-19,163,126,273,200,89,126,163,52,126,89,163,163,85,332,402,c
191,226,163,261,273,310,384,420,163,310,236,273,200,236,273,273,121,437,437,c
50,121,16,85,89,126,200,236,52,163,52,52,52,-20,52,52,-90,226,191,c
85,156,89,85,126,163,126,236,200,200,236,200,126,200,236,200,50,297,297,c
50,156,163,85,126,126,163,236,310,310,163,163,126,163,163,163,-55,156,50,c
-125,-55,-20,-125,-94,-131,-57,-57,200,163,52,89,16,-20,89,52,-55,-55,-125,c
15,156,89,121,-20,52,-94,52,236,273,126,310,52,163,200,236,50,50,-160,c
-55,50,-20,50,-131,-57,-167,-94,89,52,-94,126,-57,-20,-20,52,-55,-160,-336,c
15,85,89,85,-57,-20,-204,-20,126,52,89,200,16,126,89,126,191,-90,-90,c
226,261,310,297,89,126,-57,126,200,200,163,236,89,163,16,163,261,-19,-19,c
156,85,236,226,52,52,-20,16,89,-20,126,126,89,52,-57,16,367,15,50,c
332,226,494,543,384,420,273,273,236,163,384,347,273,347,163,273,613,367,367,c
297,156,494,508,457,494,457,310,163,89,236,236,273,163,16,89,508,297,261,c
261,191,494,437,494,420,420,273,126,-57,347,310,273,236,89,89,649,367,402,c
402,437,641,543,641,531,494,420,163,89,384,384,310,347,126,163,578,402,402,c
226,156,384,297,420,310,384,236,52,-57,200,236,236,200,-20,52,473,226,332,c
297,226,457,402,494,420,420,420,200,163,420,384,310,420,200,273,543,367,437,c
226,226,384,332,384,384,384,384,163,236,236,236,236,273,52,126,261,226,191,c
85,85,200,121,236,236,273,273,126,200,236,236,163,273,126,163,226,226,191,c
121,226,273,261,347,420,347,420,273,420,273,347,236,420,236,347,156,367,121,c
-19,15,89,15,200,236,273,236,163,200,89,163,163,163,89,126,15,226,-90,c
50,156,200,156,310,347,236,273,89,163,310,347,273,347,273,200,226,402,-19,c
85,226,236,261,347,384,236,236,16,52,236,236,310,200,126,52,85,297,-160,c
-19,15,89,156,273,163,126,52,16,-57,236,200,310,89,163,16,191,261,-55,c
156,156,273,297,420,273,200,200,163,200,384,310,347,236,273,236,191,367,15,c
50,50,126,50,236,89,126,16,52,52,200,89,236,-57,89,16,15,191,-90,c
50,121,236,85,310,163,126,89,126,52,384,236,273,89,236,126,226,332,156,c
121,261,347,191,420,310,310,200,200,200,347,163,273,52,163,126,191,332,156,c
50,50,200,50,273,126,236,52,89,89,273,52,163,-57,126,52,226,261,156,c
226,191,347,297,420,347,347,273,200,236,420,273,236,200,236,236,297,437,297,c
156,50,200,156,273,310,310,200,89,89,236,126,163,-20,52,52,85,297,191,c
121,50,163,121,310,310,310,236,126,126,347,273,200,89,163,126,226,402,367,c
226,226,273,297,420,457,420,384,273,384,347,310,310,126,163,236,191,473,367,c
50,50,163,156,310,273,347,236,200,236,200,200,236,-20,89,89,156,367,297,c
156,226,310,402,384,457,384,420,310,347,310,384,310,273,273,310,261,508,402,c
156,191,200,367,236,384,310,310,200,236,89,200,163,126,89,126,85,261,121,c
121,121,163,226,89,236,126,163,163,89,163,236,126,200,163,126,191,191,121,c
297,332,310,367,200,384,163,236,236,273,236,273,163,273,163,236,156,156,15,c
156,121,126,156,16,163,52,-20,89,89,52,126,52,52,-20,52,121,-55,-90,c
261,261,200,297,89,273,52,126,126,89,236,347,126,236,163,200,226,85,50,c
297,367,126,261,16,200,16,89,52,52,89,236,52,89,16,16,15,-19,-90,c
297,261,52,121,-20,52,-20,-20,-20,16,163,236,89,126,126,52,156,15,50,c
437,367,347,332,236,273,200,236,126,236,310,310,236,310,236,273,261,226,226,c
191,85,236,121,200,126,236,163,89,126,126,89,163,89,89,126,226,121,261,c
191,85,310,191,310,236,273,347,163,236,273,200,236,310,310,310,367,297,437,c
156,156,273,261,236,273,273,420,126,310,126,89,163,200,126,273,226,261,261,c
15,50,126,191,52,163,126,347,89,236,126,52,163,126,126,200,297,261,332,c
191,332,384,473,273,384,347,531,310,420,347,273,310,310,310,384,437,402,508,c
121,226,273,297,200,200,347,273,200,200,163,126,236,89,163,126,297,191,297,c
121,191,273,261,163,163,236,236,163,200,310,273,273,273,273,236,332,261,367,c
156,226,310,297,200,273,273,310,163,273,273,273,273,273,163,236,156,226,261,c
-19,-19,89,85,16,52,89,89,126,126,126,200,163,163,89,89,85,85,191,c
50,226,236,297,163,236,126,200,273,310,273,420,236,384,273,273,191,191,226,c
-19,156,89,191,16,89,52,52,236,200,52,273,126,163,89,89,50,15,15,c
15,156,89,156,16,89,-57,16,273,200,163,310,163,236,163,163,191,50,85,c
156,261,200,261,126,200,52,163,347,347,163,273,200,236,163,236,85,121,85,c
15,15,16,-19,-20,16,-20,16,236,236,16,126,89,52,16,126,15,15,85,c
156,191,163,156,200,200,163,200,273,384,236,347,200,310,236,347,191,261,297,c
121,156,89,121,200,163,236,163,163,273,52,200,126,126,89,163,50,156,191,c
50,85,52,121,200,126,200,89,126,236,163,236,126,126,163,200,156,261,261,c
121,261,163,332,310,310,273,236,200,384,236,347,163,236,200,310,156,367,261,c
-19,85,16,191,126,163,200,16,52,126,52,236,16,52,52,52,50,261,156,c
50,191,126,332,236,273,236,126,126,200,236,420,126,236,236,236,226,437,332,c
50,156,89,261,273,200,310,89,200,200,89,273,89,126,126,163,85,261,191,c
-19,15,16,121,163,16,200,-57,89,16,126,236,52,89,126,89,191,156,226,c
121,261,200,332,273,126,236,126,163,163,273,420,126,273,236,200,226,226,226,c
50,121,89,156,126,-20,163,-20,126,52,89,236,16,52,52,16,121,15,85,c
156,191,200,261,126,16,89,89,200,200,236,384,89,236,200,200,297,85,226,c
191,261,236,261,89,52,89,126,236,273,126,273,52,163,89,163,121,-55,50,c
15,50,52,15,-57,-131,-57,-20,163,126,52,163,-57,52,52,52,121,-160,50,c
156,191,236,226,89,52,16,163,273,347,200,273,52,273,163,236,191,15,156,c
85,15,89,85,-57,-57,-57,52,89,89,16,16,-57,16,-20,52,50,-160,15,c
121,85,126,85,-20,-20,-94,126,52,16,163,89,16,163,126,163,191,-19,191,c
156,226,163,191,52,126,52,273,89,200,89,89,52,163,89,163,50,15,121,c
15,50,-20,15,-57,16,-57,163,-57,89,16,-20,16,52,52,52,50,-19,156,c
191,261,163,226,163,273,89,384,89,200,236,163,200,273,273,273,191,191,332,c
121,156,52,191,126,200,126,236,52,89,16,16,126,52,126,89,50,50,156,c
85,121,89,191,126,163,89,163,126,89,163,163,126,163,200,126,226,121,261,c
191,332,236,367,273,310,200,236,200,236,200,273,200,236,200,163,191,191,226,c
85,191,16,156,52,52,52,-20,16,-20,52,126,52,52,16,-20,121,15,85,c
156,297,126,261,163,163,89,89,89,89,236,273,126,310,200,236,261,191,261,c
85,121,89,121,126,89,126,52,89,89,52,126,52,163,52,126,85,15,121,c
15,-19,-20,-19,16,-57,16,-57,52,16,89,163,16,200,126,163,156,-55,85,c
191,156,52,121,16,52,16,52,89,163,126,163,16,273,163,236,50,-19,15,c
15,-90,-167,-160,-204,-167,-131,-94,-20,16,-57,-94,-57,52,16,89,-125,-195,-90,c
85,15,-94,-90,-94,-57,-131,16,52,89,163,-20,52,273,200,236,-19,-55,15,c
85,121,-94,-55,-94,-57,-94,-57,52,52,52,-131,52,89,89,89,-160,-160,-195,c
15,-55,-167,-195,-204,-241,-241,-204,52,-57,16,-131,16,16,89,-20,-55,-231,-125,c
156,50,16,15,-20,-20,-94,-20,236,163,126,52,89,126,163,126,50,-55,15,c
15,-125,-57,-90,-57,-167,-57,-167,163,16,-57,-131,16,-94,-20,-57,-19,-125,-19,c
50,-55,89,85,126,16,52,-20,273,89,163,16,163,89,163,126,261,121,261,c
156,50,200,261,273,200,273,126,310,200,163,-20,200,52,163,89,191,156,226,c
85,-55,126,121,200,89,200,52,200,52,163,-94,200,-57,163,16,261,121,261,c
297,226,384,367,347,347,273,310,273,310,384,126,310,163,310,273,297,332,367,c
191,121,236,261,236,273,273,236,200,273,126,16,200,-20,126,52,156,226,261,c
85,85,200,297,273,310,273,310,347,310,200,163,273,126,310,200,297,402,473,c
85,156,236,402,347,420,384,457,494,457,126,163,310,163,310,273,156,437,402,c
-90,-90,-20,121,126,200,236,310,347,273,-20,52,200,52,200,200,50,261,332,c
15,121,52,261,200,310,236,457,384,420,163,273,236,273,347,384,121,367,367,c
-19,15,-20,121,52,126,163,273,310,310,16,52,126,89,126,200,-55,85,85,c
-55,-19,-57,-19,16,-20,16,126,273,273,126,126,126,200,200,273,15,85,121,c
15,191,16,85,126,89,52,200,273,384,126,200,163,273,236,310,-55,121,50,c
-125,-19,-131,-125,-20,-131,-57,-57,52,52,16,52,16,89,16,52,-125,-55,-55,c
15,85,16,-19,89,-20,-20,52,126,126,200,236,89,273,163,273,85,85,85,c
15,-19,-20,-90,52,-20,52,-20,126,126,16,16,-20,126,16,163,-19,-55,-55,c
-90,-160,-57,-160,52,-94,16,-94,52,16,52,16,-57,126,52,163,121,-55,15,c
50,121,89,15,163,16,89,-57,89,163,89,126,-20,163,89,236,85,-55,-19,c
-125,-55,-131,-231,-20,-241,-20,-315,-57,-167,-204,-57,-167,-94,-94,-57,-55,-195,-90,c
-125,-19,-57,-125,89,-57,52,-167,16,-131,-57,89,-57,126,126,89,85,50,191,c
-195,-55,16,-55,200,52,273,-20,52,-57,-167,-20,16,16,16,16,15,15,191,c
-301,-301,-20,-160,163,-20,200,-94,-57,-131,-94,-57,16,-20,16,-20,85,15,226,c
-90,-55,163,85,310,236,236,163,52,52,89,163,89,163,89,163,156,85,261,c
-125,-195,16,-55,126,52,126,52,-57,-57,-94,-20,-20,-20,-94,16,50,-125,85,c
15,-160,89,15,163,89,89,126,16,-20,52,126,16,163,89,163,226,15,261,c
85,15,126,121,236,200,200,200,-20,-20,-20,52,-20,89,16,89,85,-19,121,c
-90,-125,-20,-55,89,-20,16,-20,-131,-167,-94,-57,-131,-94,-94,-57,85,-125,85,c
15,85,200,156,200,126,52,89,52,89,52,126,-20,52,52,89,191,15,121,c
-55,15,89,50,52,-94,-57,-94,16,-20,-94,-20,-131,-167,-131,-94,50,-160,-125,c
-19,15,163,85,-20,-167,-131,-131,163,-94,89,52,-57,-57,52,16,226,-125,-19,c
121,156,273,191,16,-57,-57,-57,273,16,89,52,16,-94,89,52,191,-55,-55,c
-19,-55,126,-19,-94,-204,-57,-204,163,-94,16,-94,-20,-241,16,-94,226,-125,-19,c
156,226,384,191,200,16,126,16,347,126,236,200,126,52,200,89,402,121,226,c
156,191,384,121,273,16,236,16,273,126,89,89,89,-94,16,-20,261,50,121,c
121,50,347,85,273,16,200,52,236,163,200,126,89,16,126,89,367,156,297,c
226,156,457,261,420,273,347,273,273,310,273,200,200,89,200,163,332,297,297,c
85,-19,273,121,273,89,236,89,52,-20,126,16,126,-57,52,-57,297,121,191,c
191,156,347,297,347,273,236,236,89,52,310,273,200,200,200,126,402,297,261,c
156,261,310,297,273,236,200,200,52,126,126,200,89,126,-20,89,226,121,85,c
85,156,200,191,163,126,52,89,16,52,163,273,126,200,52,126,297,50,156,c
297,261,384,367,310,310,126,236,163,200,347,384,273,384,200,273,332,50,226,c
226,85,236,156,163,89,16,89,52,16,200,163,236,163,89,52,226,-195,85,c
297,226,310,191,236,163,16,200,89,89,384,310,273,347,273,200,332,-55,226,c
332,332,310,156,236,236,52,273,52,126,273,236,273,310,163,126,121,-90,85,c
226,156,200,-19,126,89,-57,163,-20,-20,273,200,236,236,163,89,156,-90,121,c
367,332,347,156,273,273,52,347,126,163,384,384,347,420,310,273,191,85,226,c
226,121,200,-19,126,89,16,200,52,52,163,163,236,163,163,52,15,-90,85,c
226,226,163,50,163,126,-20,200,89,52,310,310,273,273,310,163,121,50,191,c
297,402,163,156,163,200,52,236,126,163,236,236,236,163,200,89,15,50,50,c
226,226,-20,15,16,52,-57,16,52,16,163,126,163,16,89,-20,50,-19,85,c
437,402,163,226,236,310,89,200,126,200,310,310,236,200,236,126,156,226,191,c
367,297,52,121,126,200,52,89,-20,16,89,126,126,16,52,-94,-19,50,15,c
332,261,89,85,126,163,-20,89,16,16,236,236,163,89,163,52,85,50,121,c
437,402,200,191,200,200,16,200,163,236,200,236,163,89,163,200,50,50,50,c
297,226,16,-19,16,16,-94,16,89,89,52,16,89,-57,16,89,85,-90,-19,c
508,473,236,226,163,200,-57,200,163,200,273,200,200,163,163,236,261,85,156,c
508,473,200,191,126,163,16,163,163,163,89,52,163,16,16,52,121,-19,121,c
402,332,126,50,126,126,89,126,310,163,163,126,163,89,126,126,226,85,367,c
437,473,236,156,236,310,273,347,457,384,163,236,236,163,236,310,121,191,402,c
261,226,52,-55,89,89,163,163,310,200,16,52,126,-20,89,163,15,85,261,c
367,297,200,121,200,163,236,236,347,347,236,236,236,200,273,347,156,297,402,c
332,297,163,85,163,126,273,163,236,273,126,89,163,52,126,200,-55,191,191,c
156,156,16,-125,16,-57,89,-20,89,89,126,16,126,16,126,126,-55,156,156,c
297,297,163,50,163,126,163,163,163,273,236,163,200,200,200,236,-55,226,191,c
156,85,16,-90,52,-57,89,16,52,126,52,16,89,16,52,52,-125,50,50,c
226,121,126,121,163,89,126,126,126,163,236,236,163,236,236,200,121,226,226,c
261,226,163,261,200,200,200,200,126,126,163,126,126,163,126,126,85,121,85,c
156,85,89,156,89,89,89,89,52,52,163,16,126,89,89,89,226,50,85,c
332,261,310,402,273,310,163,347,236,273,347,163,236,310,200,347,332,191,226,c
297,121,273,261,163,200,163,200,163,126,163,-20,163,89,52,163,261,15,121,c
402,226,420,367,236,236,200,236,236,89,384,200,236,236,236,273,508,191,261,c
508,402,531,473,347,347,310,310,236,163,310,200,273,200,273,273,367,226,156,c
332,191,310,156,200,126,200,126,52,16,163,52,200,52,236,163,261,156,85,c
473,367,310,261,273,273,273,310,163,273,310,200,273,310,347,347,261,367,191,c
332,226,126,156,126,163,273,163,52,126,126,52,200,126,163,126,50,226,50,c
226,191,89,121,163,89,273,126,52,16,273,200,236,236,310,126,191,297,226,c
332,297,200,226,273,200,384,200,163,126,273,163,273,236,273,163,121,367,226,c
191,15,52,-19,89,16,273,16,52,-57,89,-57,126,16,126,16,121,191,156,c
297,191,236,121,163,163,236,126,126,16,273,126,163,236,236,163,226,297,226,c
191,121,163,85,89,89,200,16,89,-20,89,16,89,52,52,-20,50,121,15,c
121,15,126,50,89,16,126,-131,52,-94,200,126,89,89,89,-20,261,85,50,c
332,191,310,332,236,163,200,16,89,52,273,200,163,200,89,126,332,50,-19,c
297,50,200,191,52,-20,52,-167,-20,-94,163,16,89,16,-20,-57,297,-160,-125,c
437,226,384,297,200,126,52,-20,126,89,347,200,236,236,236,163,402,15,50,c
402,226,384,226,126,126,89,16,200,126,163,52,236,89,126,52,156,-55,-55,c
191,50,200,50,16,16,16,-20,200,89,126,52,163,89,126,16,156,15,15,c
297,261,273,261,200,273,200,200,384,310,236,163,273,273,236,200,156,226,121,c
191,121,163,15,163,126,200,52,200,16,126,-20,236,52,89,-20,50,121,15,c
226,156,310,85,310,200,236,89,236,16,347,126,347,236,273,89,226,332,156,c
261,226,347,156,384,273,347,126,163,89,236,89,310,163,126,16,121,297,15,c
156,85,200,-19,273,126,236,-57,52,-57,200,16,200,89,126,-94,156,226,85,c
261,261,347,226,420,384,347,126,126,52,347,236,273,310,236,89,261,437,226,c
156,121,236,121,273,236,310,16,-20,-94,126,89,126,52,16,-131,156,261,121,c
191,121,273,191,347,236,347,-20,52,-57,273,236,163,200,126,52,402,367,332,c
297,226,420,332,457,310,494,89,163,126,236,236,236,200,163,126,437,332,297,c
156,-19,310,156,310,52,347,-94,126,52,126,126,200,52,126,16,473,156,261,c
226,156,531,402,457,236,384,163,347,347,347,273,310,236,310,236,613,332,367,c
226,121,457,332,310,163,347,163,236,273,200,89,200,16,89,52,508,121,226,c
508,332,494,367,273,200,236,163,89,89,420,200,200,126,163,52,684,191,297,c
825,754,678,578,347,310,310,310,126,89,531,273,273,200,200,126,578,226,226,c
754,543,457,261,163,52,200,126,126,52,347,89,200,16,163,52,402,85,191,c
789,543,494,297,273,200,273,347,236,310,457,236,273,273,420,310,367,297,332,c
578,367,310,191,200,200,273,347,126,236,200,16,200,52,200,89,121,226,156,c
367,191,200,85,126,126,163,200,163,163,236,16,163,16,273,89,191,261,261,c
437,402,310,261,273,310,310,310,347,420,273,89,200,126,310,273,261,367,261,c
297,191,200,156,163,126,273,89,236,310,163,-57,126,-20,126,126,261,226,121,c
402,261,384,332,273,236,273,200,236,273,384,163,200,236,310,273,473,402,261,c
402,332,384,297,273,236,273,200,89,89,236,89,163,126,163,89,297,226,85,c
226,121,273,156,126,89,126,16,16,-94,200,89,89,52,163,16,367,85,85,c
297,261,384,367,273,236,163,163,273,126,310,273,163,200,236,200,367,191,121,c
156,50,126,156,16,16,16,-94,200,-20,52,16,16,-20,16,-57,121,-55,-90,c
156,85,16,85,16,-20,-57,-94,200,16,200,163,89,163,200,89,121,15,15,c
156,156,16,85,52,16,16,-20,200,89,89,126,89,89,126,126,-19,-55,-90,c
50,-55,-131,-55,-57,-131,-57,-131,126,-20,16,52,16,16,89,52,15,-55,-90,c
156,121,52,191,89,163,89,126,236,200,163,236,126,273,236,236,85,191,50,c
15,-19,-94,15,-20,89,89,52,89,16,-57,16,16,52,52,16,-125,15,-90,c
15,50,-94,-19,52,89,89,52,163,52,52,126,52,126,200,126,15,121,156,c
191,191,16,85,200,200,273,163,273,200,52,163,52,126,163,126,-55,191,156,c
50,-19,-94,-55,126,52,236,16,200,16,-20,52,16,-20,126,-20,-55,121,156,c
156,85,16,121,236,310,310,236,236,89,163,236,163,236,273,163,50,332,261,c
50,-55,-94,50,89,200,236,126,89,52,-57,52,52,52,16,16,-125,85,50,c
-19,-125,-94,15,52,89,126,52,52,89,52,163,52,126,126,126,50,85,121,c
121,85,52,156,126,163,163,163,89,163,89,236,89,200,163,236,-19,15,-19,c
15,-19,-167,-55,-131,-131,-131,-94,-167,-131,-94,52,-57,-57,-20,16,-160,-195,-266,c
85,191,-94,121,-167,-20,-241,52,-131,52,52,236,-57,126,89,200,-90,-19,-195,c
50,121,-131,50,-241,-20,-167,89,-131,89,-94,126,-94,52,-57,89,-195,-125,-195,c
-19,-55,-94,-90,-204,-131,-94,52,-20,-20,52,89,16,52,89,126,-19,-55,50,c
156,156,163,50,16,52,126,236,126,163,200,163,163,126,163,200,50,85,191,c
121,15,89,-125,-57,-94,126,52,16,-57,52,-20,89,-94,-20,-131,15,-55,121,c
261,121,200,85,126,52,200,163,16,16,236,200,126,89,126,16,226,156,261,c
261,121,200,156,126,126,236,163,52,126,89,163,52,-20,-57,-57,50,121,156,c
121,-55,126,50,52,-20,163,52,163,89,89,89,16,-57,-20,-20,121,121,261,c
297,191,347,261,273,236,347,273,384,273,273,273,163,163,126,163,191,261,332,c
226,121,200,85,163,89,273,89,126,52,126,163,126,-20,-20,-20,50,50,156,c
297,191,310,121,236,126,236,126,126,163,347,347,200,200,200,236,261,121,261,c
332,226,347,226,273,200,273,163,310,347,273,310,200,126,89,273,156,50,85,c
226,50,200,121,89,16,16,-20,200,163,200,236,89,-20,16,52,191,-90,-55,c
367,297,310,402,200,236,16,200,236,384,347,420,200,163,236,273,332,85,50,c
297,156,273,226,200,89,126,126,236,384,236,200,273,-57,236,236,226,15,50,c
297,156,273,156,236,89,126,163,347,384,384,310,347,52,420,310,226,191,85,c
261,367,236,226,163,163,89,236,310,457,273,310,200,52,200,273,-19,226,-90,c
85,121,16,15,-57,-57,-57,52,126,273,126,163,89,-131,52,126,-19,50,-55,c
297,191,273,191,126,163,89,200,163,200,347,384,236,89,310,273,226,226,121,c
156,121,200,121,16,52,52,89,-20,-57,89,273,89,-131,52,-94,-19,50,-125,c
15,85,16,50,-57,-131,-57,-20,-57,-94,52,347,16,-94,89,-94,50,85,15,c
85,156,89,156,52,-57,89,126,89,89,52,420,89,-57,163,52,15,121,85,c
-55,-125,-20,-125,-57,-278,52,-20,89,-57,-20,236,16,-241,89,-94,-55,-19,50,c
15,-55,126,-19,89,-131,126,89,236,52,200,384,89,-57,273,52,121,121,191,c
-55,-90,89,-55,89,-167,163,16,200,-57,16,236,16,-241,89,-131,-55,-55,-19,c
-160,-231,-57,-125,-57,-315,-20,-131,163,-167,16,347,-57,-204,163,-94,-19,-125,15,c
-19,-55,52,15,16,-167,16,-20,273,52,89,457,16,-57,236,126,-55,-90,15,c
-125,-266,-94,-266,-204,-388,-131,-241,126,-131,-94,236,-94,-315,89,-57,-125,-301,-125,c
15,-125,16,-160,-94,-278,-94,-131,163,16,126,420,-20,-131,273,126,85,-125,50,c
85,15,52,-90,-94,-167,-20,-20,163,236,-20,347,-131,-204,126,126,-125,-125,-55,c
-55,-125,-131,-195,-167,-241,-131,-94,89,52,-57,347,-241,-204,52,52,-90,-125,15,c
-19,50,-20,50,52,16,16,163,236,236,89,531,-131,16,126,236,-55,121,121,c
-160,-160,-167,-90,-20,-94,16,16,89,89,-94,384,-204,-167,-57,16,-195,-19,15,c
-55,-55,-57,-55,52,16,52,16,89,89,126,531,-131,-20,163,163,-19,156,191,c
15,121,52,50,163,163,200,163,163,163,126,494,-57,-20,126,200,-90,156,156,c
-160,-90,-57,-160,89,16,126,16,126,89,52,347,-131,-94,52,163,-55,85,156,c
-19,50,126,50,273,236,236,236,236,310,200,568,-57,163,200,347,50,226,261,c
-90,-125,-20,-55,126,163,200,89,126,163,-20,347,-204,-20,16,52,-125,50,85,c
-90,-195,16,-55,163,163,126,52,126,126,89,384,-167,52,126,163,85,121,226,c
50,-19,163,50,273,236,273,163,236,273,89,273,-94,52,163,200,50,121,156,c
-19,-160,16,-160,163,16,163,-57,163,163,-20,89,-131,-94,52,52,15,-19,85,c
85,15,163,15,273,163,236,89,273,273,163,273,16,163,273,200,156,226,191,c
50,-19,126,-55,236,89,273,16,163,-20,52,126,16,16,163,-94,-55,85,50,c
-19,-125,52,-125,200,-20,200,-94,126,-167,163,163,89,52,273,-57,50,156,156,c
85,-19,163,85,347,200,310,89,200,163,236,163,163,126,273,89,50,261,156,c
-19,-195,-20,-19,236,52,273,-57,89,89,89,-20,89,-57,126,-57,15,156,121,c
121,-19,126,191,420,236,347,126,200,163,273,200,163,236,347,89,226,402,332,c
121,50,163,226,384,236,420,163,200,200,126,89,126,163,163,-20,121,297,226,c
50,-90,89,121,273,126,273,89,200,163,126,89,52,163,163,-20,226,297,261,c
191,191,273,332,384,347,384,273,310,273,200,236,126,310,273,126,226,437,261,c
85,121,126,156,200,126,236,89,163,126,16,52,52,89,126,-57,121,226,121,c
156,191,200,226,236,163,200,163,273,273,163,236,126,273,347,126,226,367,261,c
121,297,200,297,236,236,273,200,310,347,52,126,89,200,236,52,85,297,121,c
50,156,89,121,126,89,200,52,236,163,16,-20,52,126,236,-20,156,261,156,c
261,367,347,332,310,347,347,273,420,347,163,126,126,310,347,126,261,473,297,c
156,156,236,156,200,310,273,126,310,163,-20,-131,16,126,89,-57,85,261,191,c
191,156,273,156,236,384,273,236,384,273,126,16,52,310,236,163,191,367,367,c
261,226,236,191,273,457,347,347,457,494,52,-20,52,347,163,273,50,332,261,c
85,50,16,-19,89,200,236,163,236,236,-94,-131,-20,273,89,163,50,226,226,c
191,297,163,226,236,347,273,347,273,273,89,52,89,531,273,384,156,367,332,c
156,226,89,121,126,200,236,273,200,200,-131,-167,-20,310,89,236,15,191,156,c
156,156,89,121,126,236,200,273,200,236,-20,-57,16,384,236,347,226,297,297,c
261,261,236,332,200,420,273,420,200,347,-20,-20,52,420,200,384,191,226,191,c
50,50,52,85,-20,163,126,126,16,52,-167,-167,-57,236,52,126,121,-19,50,c
50,156,163,191,52,236,126,236,163,200,16,16,16,457,236,347,191,156,156,c
-90,15,52,85,-20,89,89,126,89,126,-167,-204,-20,236,89,163,15,15,-19,c
-195,-195,16,-19,-57,-20,16,16,-20,-20,-94,-204,16,236,163,163,156,15,50,c
-55,15,163,226,89,163,126,126,52,126,-57,-131,89,310,200,236,191,121,50,c
-160,-125,-20,50,-20,16,52,-57,-57,-57,-204,-315,16,89,16,16,121,-55,-55,c
-55,-55,163,191,163,163,89,89,52,52,52,-131,163,273,163,126,332,156,156,c
-55,-19,236,156,200,163,200,126,16,16,-20,-241,163,126,16,-57,191,85,85,c
-160,-125,163,-19,126,52,126,16,-57,-94,16,-278,89,126,16,-94,226,85,121,c
-19,121,310,226,236,273,200,236,126,126,89,-167,163,273,89,52,226,226,156,c
-90,-55,126,85,52,126,126,52,163,-20,-94,-388,89,16,-94,-204,121,15,-19,c
85,-19,200,226,163,163,163,89,384,89,126,-167,200,200,126,16,297,191,121,c
121,15,200,226,163,200,163,126,457,163,16,-204,200,163,52,16,121,85,-90,c
-90,-195,16,-19,-20,-20,-20,-57,347,16,16,-278,163,52,16,-57,121,-55,-125,c
121,50,236,156,163,126,16,126,457,200,236,-131,310,310,163,163,156,50,-55,c
156,-55,89,-55,16,-57,-20,-20,310,89,89,-351,236,89,-20,16,-55,-160,-195,c
191,-90,89,-55,52,-57,-57,52,310,163,236,-241,273,236,126,163,50,15,15,c
191,15,126,50,126,89,52,236,310,273,200,-167,273,273,89,236,-125,15,15,c
50,-231,-57,-195,-57,-131,-20,52,163,52,52,-351,200,126,52,89,-195,-125,85,c
121,-55,16,-90,89,-20,89,273,347,273,200,-204,347,310,273,384,-125,85,261,c
-55,-160,-131,-195,-57,-94,89,200,310,310,-20,-425,236,89,89,273,-266,-19,156,c
-19,-195,-131,-195,-57,-131,89,200,310,236,52,-315,236,200,163,273,-55,85,297,c
156,15,16,15,52,16,236,310,384,310,89,-241,236,273,163,310,-19,156,297,c
15,-195,-94,-195,-57,-167,163,89,273,163,-57,-351,126,89,52,163,-55,15,226,c
121,-19,52,15,89,16,236,236,347,310,126,-94,236,347,273,347,85,226,297,c
50,85,-20,50,16,16,163,163,200,200,-20,-204,163,163,89,126,-90,50,15,c
15,85,-131,-19,-94,-57,-57,52,16,52,16,-167,126,200,89,126,15,50,15,c
226,332,52,226,52,200,52,236,126,200,89,-57,200,347,163,236,85,191,15,c
191,156,16,50,16,89,16,52,52,-20,16,-204,200,126,89,52,121,50,15,c
332,226,236,226,236,236,163,163,200,126,273,16,347,384,384,273,332,226,261,c
367,261,236,191,236,236,273,126,236,163,126,-20,273,273,236,163,121,121,121,c
297,156,52,-19,89,16,126,-20,126,52,126,-94,200,163,236,89,156,50,121,c
508,473,200,261,236,273,200,200,200,273,236,52,236,310,310,236,226,191,191,c
402,332,52,191,16,163,89,89,16,52,52,-94,89,126,52,16,156,15,85,c
508,332,163,332,89,273,52,200,16,126,273,126,200,347,236,236,402,156,261,c
543,367,347,402,163,310,163,310,89,236,273,52,273,236,163,236,332,156,226,c
367,191,273,226,52,126,52,163,52,126,310,-94,273,126,126,89,367,121,261,c
473,473,457,473,200,347,200,384,236,384,457,126,384,310,273,236,402,297,367,c
332,332,273,367,52,273,126,310,89,236,200,-20,273,126,89,16,226,156,226,c
332,297,310,402,89,310,126,347,126,200,310,126,347,273,273,163,437,332,437,c
402,402,420,508,273,457,347,531,200,420,273,126,384,310,273,236,367,402,402,c
226,226,236,297,200,310,273,384,163,347,126,16,273,236,200,126,297,297,367,c
261,367,384,508,384,531,347,568,347,494,236,310,384,531,384,310,367,508,473,c
121,297,273,402,347,457,384,457,310,420,52,163,347,347,236,163,226,332,297,c
85,191,273,332,347,384,310,347,347,384,163,163,384,420,347,200,367,402,402,c
191,367,384,473,457,494,420,494,457,568,163,200,494,457,420,310,261,437,297,c
-19,121,89,261,236,236,273,236,273,384,-20,52,384,236,236,163,121,191,121,c
85,261,163,402,273,347,200,347,273,457,163,273,457,420,347,347,226,297,191,c
